daq_type,DSI
sample_rate,300
timestamp,P3,C3,F3,Fz,F4,C4,P4,Cz,CM,A1,Fp1,Fp2,T3,T5,O1,O2,X3,X2,F7,F8,X1,A2,T6,T4,TRG                       
2.410383427833605,-1101.9000244140625,829.7999877929688,-121.19999694824219,2289.300048828125,-474.0,-2489.699951171875,-2648.39990234375,-3084.300048828125,33789.6015625,4422.0,-6826.7998046875,-4263.2998046875,995.4000244140625,-3621.89990234375,-5678.10009765625,-3310.5,-9.0,0.8999999761581421,-7142.7001953125,-657.0,-14.100000381469727,-2478.300048828125,1946.0999755859375,9166.5,0.0
2.412762107930805,-9031.5,-9830.400390625,-9830.400390625,-9830.400390625,-9830.400390625,-8490.0,-7935.0,-7818.89990234375,-29640.0,-9830.400390625,-103.5,-1082.4000244140625,-6247.2001953125,-2812.5,-3081.89990234375,-4610.7001953125,-8.100000381469727,0.8999999761581421,-296.70001220703125,-334.79998779296875,-14.100000381469727,-9830.400390625,-5134.5,-9225.0,0.0
2.4219720749693243,9830.099609375,9830.099609375,9830.099609375,9830.099609375,9830.099609375,9830.099609375,9830.099609375,9830.099609375,12078.2998046875,-5240.7001953125,9830.099609375,9705.0,9830.099609375,9830.099609375,9830.099609375,9830.099609375,-9.0,1.5,9830.099609375,9316.2001953125,-14.100000381469727,-2130.300048828125,9830.099609375,9830.099609375,0.0
2.4355830011789146,-8823.900390625,-8254.5,-8220.2998046875,-8010.89990234375,-8981.400390625,-9235.7998046875,-9141.0,-9273.599609375,-4964.7001953125,9413.7001953125,-9830.400390625,-9830.400390625,-8998.5,-9085.2001953125,-9028.5,-9027.900390625,-8.699999809265137,0.30000001192092896,-9758.400390625,-9830.400390625,-13.800000190734863,9830.099609375,-9745.5,-9051.900390625,0.0
2.4381875195483236,1757.699951171875,2226.0,3440.39990234375,2612.39990234375,2732.10009765625,2668.199951171875,1994.4000244140625,2502.89990234375,-5557.5,9830.099609375,558.0,2154.89990234375,-910.7999877929688,-1748.699951171875,-1295.0999755859375,-1064.4000244140625,-8.399999618530273,0.0,-561.5999755859375,1256.0999755859375,-14.100000381469727,9830.099609375,-543.0,50.70000076293945,0.0
2.4387591726748523,5480.39990234375,5486.10009765625,5127.2998046875,5700.60009765625,5514.60009765625,5353.2001953125,5378.10009765625,5636.7001953125,20970.30078125,2899.199951171875,6729.89990234375,7749.0,5922.89990234375,5950.5,5591.39990234375,6008.39990234375,-9.0,0.8999999761581421,6404.10009765625,9214.5,-14.100000381469727,-2097.0,6599.10009765625,6658.2001953125,0.0
2.439325051527376,-9830.400390625,-9830.400390625,-9830.400390625,-9830.400390625,-9830.400390625,-9830.400390625,-9830.400390625,-9830.400390625,-30232.80078125,-9830.400390625,-9510.0,-9830.400390625,-9088.5,-8465.400390625,-8912.099609375,-9238.2001953125,-8.100000381469727,0.0,-9246.2998046875,-9759.0,-14.100000381469727,-9830.400390625,-8998.7998046875,-9529.2001953125,0.0
2.4398967046539046,9830.099609375,9830.099609375,9830.099609375,9830.099609375,9830.099609375,9830.099609375,9830.099609375,9830.099609375,26305.5,-8839.5,9830.099609375,9830.099609375,9830.099609375,9830.099609375,9830.099609375,9830.099609375,-9.0,0.6000000238418579,9830.099609375,9830.099609375,-13.800000190734863,-4569.60009765625,9830.099609375,9830.099609375,0.0
2.4404404487894076,-6261.89990234375,-6304.2001953125,-5688.89990234375,-6295.2001953125,-6202.7998046875,-5753.39990234375,-5961.2998046875,-5080.2001953125,-30529.19921875,7381.2001953125,-5262.0,-6892.2001953125,-7629.89990234375,-6996.60009765625,-6259.2001953125,-6533.7001953125,-8.699999809265137,-0.30000001192092896,-5042.39990234375,-8305.7998046875,-14.100000381469727,9830.099609375,-7705.5,-8637.599609375,0.0
2.4409832305459096,-1504.5,26.700000762939453,732.5999755859375,973.2000122070312,-585.9000244140625,-1853.4000244140625,-2369.39990234375,-3046.199951171875,26305.5,9830.099609375,-7949.39990234375,-5398.7998046875,-2728.800048828125,-5228.10009765625,-5847.2998046875,-4838.7001953125,-8.399999618530273,0.8999999761581421,-8290.7998046875,-4337.7001953125,-14.100000381469727,9830.099609375,-3387.89990234375,267.29998779296875,0.0
2.4415221627864083,8369.099609375,7398.0,7371.0,7162.5,8404.7998046875,9159.599609375,9104.099609375,9791.7001953125,-11189.099609375,4065.89990234375,9830.099609375,9830.099609375,7820.10009765625,9486.900390625,9773.400390625,9666.2998046875,-8.399999618530273,0.6000000238418579,9830.099609375,9830.099609375,-13.800000190734863,-4193.7001953125,9830.099609375,6795.0,0.0
2.442142576448982,-9830.400390625,-9830.400390625,-9830.400390625,-9830.400390625,-9830.400390625,-9830.400390625,-9830.400390625,-9830.400390625,-3482.699951171875,-9830.400390625,-6845.7001953125,-6690.0,-6295.2001953125,-3442.5,-6553.5,-7192.7998046875,-8.699999809265137,1.2000000476837158,-7093.5,-5008.2001953125,-13.800000190734863,-9830.400390625,-5430.0,-6267.60009765625,0.0
2.4427068513365042,7458.0,6891.2998046875,4238.39990234375,5403.60009765625,5011.2001953125,4763.10009765625,6482.7001953125,3509.10009765625,10151.7001953125,-9450.599609375,2885.699951171875,-527.0999755859375,9830.099609375,9830.099609375,9830.099609375,9830.099609375,-8.399999618530273,0.6000000238418579,5367.60009765625,-2747.39990234375,-14.100000381469727,-6361.7998046875,9830.099609375,9153.0,0.0
2.443247387542004,6327.89990234375,7492.7998046875,9830.099609375,7608.60009765625,8406.2998046875,8696.099609375,6990.2998046875,8814.0,-26601.900390625,4379.7001953125,5479.5,5440.5,-4923.0,-2834.10009765625,-87.9000015258789,-846.5999755859375,-9.0,1.5,4534.7998046875,2103.300048828125,-13.800000190734863,9430.5,-4970.10009765625,-9205.5,0.0
2.4437843950245006,-8793.900390625,-4856.10009765625,-3070.5,-1101.300048828125,-7467.0,-9609.0,-9830.400390625,-9830.400390625,35197.5,9830.099609375,-9830.400390625,-9830.400390625,-9830.400390625,-9830.400390625,-9830.400390625,-9830.400390625,-8.100000381469727,1.2000000476837158,-9830.400390625,-9830.400390625,-13.5,9653.7001953125,-9830.400390625,-3745.199951171875,0.0
2.4443438580170183,-2008.199951171875,-3811.800048828125,-2827.800048828125,-4162.2001953125,-972.9000244140625,179.39999389648438,-509.3999938964844,1412.4000244140625,-30751.5,-240.60000610351562,4562.10009765625,6850.7998046875,-3545.699951171875,-1971.300048828125,-1478.4000244140625,-1887.9000244140625,-8.399999618530273,0.6000000238418579,3019.199951171875,7389.0,-14.100000381469727,-6712.7998046875,-1240.199951171875,-4900.2001953125,0.0
2.444912303213544,9564.2998046875,9387.599609375,7675.2001953125,9115.5,8565.900390625,8188.2001953125,8999.400390625,7783.5,23119.19921875,-9830.400390625,8184.0,6917.39990234375,9830.099609375,9830.099609375,9830.099609375,9830.099609375,-8.699999809265137,1.5,9435.900390625,7872.89990234375,-13.800000190734863,-9830.400390625,9830.099609375,9830.099609375,0.0
2.445474653343064,-9830.400390625,-9830.400390625,-9830.400390625,-9830.400390625,-9830.400390625,-9830.400390625,-9830.400390625,-9830.400390625,-20451.599609375,-9563.400390625,-9830.400390625,-9830.400390625,-9830.400390625,-9720.2998046875,-9830.400390625,-9830.400390625,-8.699999809265137,1.7999999523162842,-9830.400390625,-9830.400390625,-13.800000190734863,-6822.2998046875,-9830.400390625,-9830.400390625,0.0
2.4460315499915795,9304.5,9211.7998046875,9639.2998046875,8983.5,9277.5,9709.5,9656.400390625,9736.5,2889.89990234375,4640.10009765625,9830.099609375,9727.5,7303.7998046875,7928.39990234375,9127.5,8501.099609375,-8.699999809265137,0.8999999761581421,9830.099609375,7270.7998046875,-14.399999618530273,9319.7998046875,7040.10009765625,5705.39990234375,0.0
2.4465743317480815,-1881.5999755859375,-995.4000244140625,-370.79998779296875,-280.5,-1212.300048828125,-1827.5999755859375,-2296.800048828125,-1875.0,11930.099609375,9830.099609375,-7018.5,-5832.89990234375,-3431.39990234375,-4881.60009765625,-5001.89990234375,-4139.39990234375,-9.0,0.8999999761581421,-6834.60009765625,-5460.60009765625,-14.100000381469727,9830.099609375,-3753.89990234375,-1450.199951171875,0.0
2.4471463056676104,-6253.7998046875,-6459.89990234375,-6677.39990234375,-6478.2001953125,-6118.7998046875,-6162.60009765625,-6085.2001953125,-6408.0,-18228.599609375,-2121.60009765625,-3014.699951171875,-1856.0999755859375,-5660.39990234375,-5255.39990234375,-5400.2998046875,-5640.0,-8.399999618530273,1.2000000476837158,-3827.699951171875,-1187.699951171875,-14.100000381469727,-6003.0,-4952.10009765625,-5481.89990234375,0.0
2.447906905871314,9830.099609375,9830.099609375,9830.099609375,9830.099609375,9830.099609375,9830.099609375,9830.099609375,9830.099609375,24675.30078125,-9830.400390625,9830.099609375,9830.099609375,9830.099609375,9830.099609375,9830.099609375,9830.099609375,-9.0,1.5,9830.099609375,9830.099609375,-14.399999618530273,-9830.400390625,9830.099609375,9830.099609375,0.0
2.4485225076388835,-9830.400390625,-9830.400390625,-9830.400390625,-9830.400390625,-9830.400390625,-9830.400390625,-9830.400390625,-9830.400390625,-35197.5,-9830.400390625,-8743.2001953125,-9558.900390625,-9830.400390625,-9304.2001953125,-9272.7001953125,-9594.599609375,-8.699999809265137,0.8999999761581421,-8593.5,-9342.900390625,-14.100000381469727,-6779.7001953125,-9830.400390625,-9830.400390625,0.0
2.462787851569079,7026.60009765625,7498.7998046875,7572.0,7537.7998046875,6933.0,6564.2998046875,6649.7998046875,5799.60009765625,28676.69921875,4622.39990234375,603.2999877929688,-248.10000610351562,6316.5,5088.2998046875,5304.60009765625,5423.10009765625,-8.699999809265137,0.6000000238418579,1792.5,-1641.5999755859375,-14.399999618530273,9404.7001953125,4878.60009765625,6501.60009765625,0.0
2.471385745563032,1041.5999755859375,1309.199951171875,2565.89990234375,1743.5999755859375,2060.699951171875,2330.699951171875,1481.699951171875,3273.300048828125,-20303.400390625,9830.099609375,3360.300048828125,5456.7001953125,-2537.699951171875,-2538.0,-1588.199951171875,-1327.199951171875,-9.0,1.5,1770.300048828125,5363.39990234375,-13.800000190734863,9830.099609375,-1627.800048828125,-2232.60009765625,0.0
2.4743270965827526,-9002.7001953125,-8704.5,-9787.7998046875,-8343.599609375,-9200.099609375,-9830.400390625,-9488.400390625,-9830.400390625,13782.599609375,2517.60009765625,-9830.400390625,-9830.400390625,-6260.7001953125,-7099.5,-8116.2001953125,-7875.0,-8.399999618530273,0.8999999761581421,-9830.400390625,-8372.7001953125,-14.100000381469727,-2781.0,-6586.7998046875,-4241.39990234375,0.0
2.4749568132423354,9830.099609375,9830.099609375,9624.2998046875,9830.099609375,9830.099609375,9830.099609375,9830.099609375,9830.099609375,-1926.5999755859375,-9830.400390625,9830.099609375,9830.099609375,9830.099609375,9830.099609375,9830.099609375,9830.099609375,-8.699999809265137,2.0999999046325684,9830.099609375,9830.099609375,-14.100000381469727,-9830.400390625,9830.099609375,9830.099609375,0.0
2.4755201257508563,-4664.10009765625,-7058.39990234375,-9033.599609375,-9569.099609375,-6886.5,-4444.7998046875,-3421.800048828125,-3051.0,-19340.099609375,-9800.7001953125,1867.800048828125,-1377.300048828125,-890.0999755859375,1391.699951171875,2055.60009765625,744.5999755859375,-9.0,0.8999999761581421,2799.60009765625,-2781.60009765625,-13.800000190734863,-1932.0,-2504.10009765625,-8199.2998046875,0.0
2.476632315082885,-6085.5,-1076.699951171875,950.0999755859375,1117.5,-4456.5,-6922.2001953125,-8069.39990234375,-7840.7998046875,25564.5,4320.2998046875,-9830.400390625,-9830.400390625,-9692.400390625,-9830.400390625,-9830.400390625,-9830.400390625,-8.699999809265137,0.30000001192092896,-9830.400390625,-9830.400390625,-13.800000190734863,9830.099609375,-9830.400390625,-5338.2001953125,0.0
2.4778615938600224,8255.400390625,8283.599609375,9830.099609375,8880.2998046875,9830.099609375,9830.099609375,9762.0,9830.099609375,-29121.30078125,9830.099609375,9726.0,9830.099609375,-5136.0,-4139.7001953125,-1137.9000244140625,-1151.699951171875,-8.399999618530273,1.5,8376.0,9182.099609375,-14.399999618530273,9830.099609375,-1752.300048828125,-5548.5,0.0
2.4800417030900386,-1221.0,710.0999755859375,-203.39999389648438,2224.199951171875,-456.6000061035156,-2604.89990234375,-2763.60009765625,-3135.300048828125,33863.69921875,4152.60009765625,-6756.89990234375,-4183.5,1186.800048828125,-3360.0,-5636.10009765625,-3269.699951171875,-9.0,1.5,-7069.7998046875,-635.7000122070312,-13.800000190734863,-2753.39990234375,2176.199951171875,9398.099609375,0.0
2.4821454635859848,-9043.2001953125,-9830.400390625,-9830.400390625,-9830.400390625,-9830.400390625,-8520.599609375,-7981.2001953125,-7829.10009765625,-28973.099609375,-9830.400390625,-139.8000030517578,-1160.699951171875,-6071.39990234375,-2606.699951171875,-2989.800048828125,-4533.2998046875,-8.100000381469727,0.6000000238418579,-245.10000610351562,-378.29998779296875,-14.100000381469727,-9830.400390625,-5013.60009765625,-9151.2001953125,0.0
2.483309942177062,9830.099609375,9830.099609375,9830.099609375,9830.099609375,9830.099609375,9830.099609375,9830.099609375,9830.099609375,11263.2001953125,-4989.60009765625,9830.099609375,9706.7998046875,9830.099609375,9830.099609375,9830.099609375,9830.099609375,-9.0,0.6000000238418579,9830.099609375,9280.2001953125,-14.100000381469727,-1952.4000244140625,9830.099609375,9830.099609375,0.0
2.4846482905742997,-8743.7998046875,-8160.60009765625,-8089.2001953125,-7880.7001953125,-8899.7998046875,-9158.099609375,-9051.0,-9221.400390625,-4001.39990234375,9457.2001953125,-9830.400390625,-9830.400390625,-8954.400390625,-9035.7001953125,-8997.0,-8982.900390625,-8.399999618530273,0.8999999761581421,-9754.7998046875,-9830.400390625,-13.800000190734863,9830.099609375,-9712.7998046875,-8928.2998046875,0.0
2.4863959708399164,1607.699951171875,2075.39990234375,3328.800048828125,2491.800048828125,2602.5,2514.0,1830.300048828125,2397.89990234375,-6372.60009765625,9830.099609375,551.0999755859375,2178.0,-1025.4000244140625,-1821.9000244140625,-1395.9000244140625,-1188.300048828125,-8.699999809265137,0.8999999761581421,-638.0999755859375,1291.199951171875,-14.399999618530273,9830.099609375,-654.0,-84.30000305175781,0.0
2.4882456632796273,5579.10009765625,5587.2001953125,5205.60009765625,5804.7001953125,5614.2001953125,5444.10009765625,5504.10009765625,5716.7998046875,21785.400390625,2674.199951171875,6775.5,7771.7998046875,6078.60009765625,6173.10009765625,5756.10009765625,6176.7001953125,-8.699999809265137,0.6000000238418579,6474.0,9254.099609375,-14.100000381469727,-2355.300048828125,6735.60009765625,6824.10009765625,0.0
2.489959660280213,-9830.400390625,-9830.400390625,-9830.400390625,-9830.400390625,-9830.400390625,-9830.400390625,-9830.400390625,-9830.400390625,-30529.19921875,-9830.400390625,-9538.7998046875,-9830.400390625,-9125.099609375,-8443.5,-8937.599609375,-9298.5,-8.699999809265137,0.8999999761581421,-9277.2001953125,-9830.400390625,-13.800000190734863,-9830.400390625,-9048.0,-9597.599609375,0.0
2.4909778572631547,9830.099609375,9830.099609375,9830.099609375,9830.099609375,9830.099609375,9830.099609375,9830.099609375,9830.099609375,26601.900390625,-8700.2998046875,9830.099609375,9830.099609375,9830.099609375,9830.099609375,9830.099609375,9830.099609375,-8.399999618530273,0.6000000238418579,9830.099609375,9830.099609375,-14.100000381469727,-4387.2001953125,9830.099609375,9830.099609375,0.0
2.4924737150235385,-6156.60009765625,-6183.2998046875,-5543.39990234375,-6161.7001953125,-6091.7998046875,-5680.5,-5872.2001953125,-4957.7998046875,-29936.400390625,7491.2998046875,-5299.2001953125,-6830.10009765625,-7529.39990234375,-6942.60009765625,-6221.7001953125,-6483.2998046875,-8.699999809265137,0.8999999761581421,-5053.7998046875,-8251.5,-14.100000381469727,9830.099609375,-7612.2001953125,-8486.7001953125,0.0
2.4938162337297802,-1640.699951171875,-145.1999969482422,590.4000244140625,797.7000122070312,-697.5,-2001.300048828125,-2503.199951171875,-3113.10009765625,25786.80078125,9830.099609375,-7865.39990234375,-5374.2001953125,-2842.5,-5219.39990234375,-5877.89990234375,-4914.89990234375,-8.100000381469727,0.30000001192092896,-8242.5,-4281.89990234375,-14.399999618530273,9830.099609375,-3447.300048828125,105.0,0.0
2.4953088835601607,8431.7998046875,7511.10009765625,7432.5,7269.89990234375,8516.099609375,9209.7001953125,9171.599609375,9830.099609375,-10448.099609375,3709.199951171875,9830.099609375,9830.099609375,8001.0,9623.400390625,9830.099609375,9749.400390625,-8.399999618530273,0.8999999761581421,9830.099609375,9830.099609375,-14.100000381469727,-4647.0,9830.099609375,6975.89990234375,0.0
2.4974174559511115,-9830.400390625,-9830.400390625,-9830.400390625,-9830.400390625,-9830.400390625,-9830.400390625,-9830.400390625,-9830.400390625,-4668.2998046875,-9830.400390625,-6870.89990234375,-6762.89990234375,-6558.0,-3751.800048828125,-6732.89990234375,-7369.5,-8.699999809265137,1.7999999523162842,-7104.60009765625,-5146.7998046875,-13.800000190734863,-9830.400390625,-5827.2001953125,-6606.60009765625,0.0
2.4994977985580356,7589.10009765625,7089.0,4487.39990234375,5830.5,5269.2001953125,4929.60009765625,6655.2001953125,3741.60009765625,10744.5,-9320.099609375,2936.39990234375,-532.2000122070312,9830.099609375,9830.099609375,9830.099609375,9830.099609375,-8.399999618530273,1.2000000476837158,5457.0,-2714.10009765625,-14.100000381469727,-6204.89990234375,9830.099609375,9254.099609375,0.0
2.501047228749469,6025.5,7198.7998046875,9830.099609375,7341.60009765625,8240.099609375,8451.599609375,6766.2001953125,8687.400390625,-27120.599609375,4548.0,5401.5,5392.7998046875,-5301.0,-3180.0,-355.20001220703125,-1140.9000244140625,-8.699999809265137,1.5,4407.2998046875,2016.5999755859375,-14.100000381469727,9629.099609375,-5181.89990234375,-9385.2001953125,0.0
2.50247539918679,-8877.599609375,-4865.7001953125,-3104.699951171875,-1098.5999755859375,-7385.7001953125,-9727.5,-9830.400390625,-9830.400390625,35419.80078125,9830.099609375,-9830.400390625,-9830.400390625,-9830.400390625,-9830.400390625,-9830.400390625,-9830.400390625,-8.399999618530273,1.5,-9830.400390625,-9830.400390625,-14.100000381469727,9432.900390625,-9830.400390625,-3572.39990234375,0.0
2.5428378952771253,-1976.4000244140625,-3824.39990234375,-2873.39990234375,-4113.0,-821.4000244140625,255.89999389648438,-412.79998779296875,1467.300048828125,-30677.400390625,-925.7999877929688,4612.2001953125,6958.5,-3456.0,-1874.699951171875,-1353.0,-1801.5,-8.699999809265137,0.30000001192092896,3028.5,7555.2001953125,-14.399999618530273,-6953.39990234375,-1110.9000244140625,-4465.2001953125,0.0
2.545475776118565,9633.2998046875,9441.599609375,7673.7001953125,9096.599609375,8597.7001953125,8196.2998046875,9039.2998046875,7797.0,22674.599609375,-9830.400390625,8194.5,6890.10009765625,9830.099609375,9830.099609375,9830.099609375,9830.099609375,-9.0,1.5,9452.099609375,7814.7001953125,-13.800000190734863,-9830.400390625,9830.099609375,9830.099609375,0.0
2.546978049738955,-9830.400390625,-9830.400390625,-9830.400390625,-9830.400390625,-9830.400390625,-9830.400390625,-9830.400390625,-9830.400390625,-19488.30078125,-9475.5,-9830.400390625,-9830.400390625,-9830.400390625,-9758.7001953125,-9830.400390625,-9830.400390625,-8.399999618530273,0.8999999761581421,-9830.400390625,-9830.400390625,-14.100000381469727,-6641.7001953125,-9830.400390625,-9830.400390625,0.0
2.549022463529846,9223.2001953125,9114.599609375,9583.2001953125,8907.2998046875,9225.2998046875,9657.900390625,9589.5,9666.2998046875,2074.800048828125,5027.39990234375,9830.099609375,9680.099609375,7091.10009765625,7670.10009765625,8941.5,8327.400390625,-8.399999618530273,0.30000001192092896,9830.099609375,7186.7998046875,-14.100000381469727,9490.5,6810.0,5475.2998046875,0.0
2.5502340986919667,-1759.800048828125,-836.7000122070312,-268.20001220703125,-156.3000030517578,-1071.9000244140625,-1673.699951171875,-2177.699951171875,-1781.699951171875,12819.2998046875,9830.099609375,-6985.7998046875,-5718.2998046875,-3269.39990234375,-4776.60009765625,-4892.39990234375,-4035.89990234375,-9.0,1.5,-6800.10009765625,-5304.0,-13.800000190734863,9830.099609375,-3621.60009765625,-1230.300048828125,0.0
2.551633397759261,-6391.2001953125,-6654.0,-6840.60009765625,-6646.7998046875,-6258.89990234375,-6285.0,-6219.60009765625,-6504.89990234375,-19117.80078125,-2193.300048828125,-3013.199951171875,-1918.5,-5781.89990234375,-5345.39990234375,-5468.7001953125,-5706.60009765625,-8.100000381469727,0.6000000238418579,-3807.300048828125,-1243.800048828125,-14.100000381469727,-6113.39990234375,-5024.7001953125,-5618.39990234375,0.0
2.552807179347347,9830.099609375,9830.099609375,9830.099609375,9830.099609375,9830.099609375,9830.099609375,9830.099609375,9830.099609375,24971.69921875,-9830.400390625,9830.099609375,9830.099609375,9830.099609375,9830.099609375,9830.099609375,9830.099609375,-9.0,0.8999999761581421,9830.099609375,9830.099609375,-14.399999618530273,-9830.400390625,9830.099609375,9830.099609375,0.0
2.554465679158881,-9830.400390625,-9830.400390625,-9830.400390625,-9830.400390625,-9830.400390625,-9830.400390625,-9830.400390625,-9830.400390625,-35197.5,-9830.400390625,-8760.599609375,-9572.400390625,-9830.400390625,-9316.2001953125,-9277.7998046875,-9584.7001953125,-8.699999809265137,0.6000000238418579,-8612.099609375,-9366.0,-13.800000190734863,-6508.2001953125,-9830.400390625,-9830.400390625,0.0
2.555975972604278,6899.10009765625,7382.7001953125,7487.10009765625,7442.10009765625,6863.39990234375,6469.5,6521.39990234375,5695.5,28232.099609375,4852.2001953125,555.9000244140625,-256.20001220703125,6142.2001953125,4851.0,5096.10009765625,5234.39990234375,-8.399999618530273,0.30000001192092896,1684.5,-1609.199951171875,-14.399999618530273,9612.0,4712.7001953125,6372.0,0.0
2.5825049121428174,1145.4000244140625,1428.300048828125,2636.699951171875,1849.5,2149.5,2434.800048828125,1563.5999755859375,3318.60009765625,-19562.400390625,9830.099609375,3454.800048828125,5534.7001953125,-2334.0,-2331.60009765625,-1421.699951171875,-1145.0999755859375,-8.699999809265137,0.8999999761581421,1880.0999755859375,5485.5,-14.100000381469727,9830.099609375,-1398.5999755859375,-2002.199951171875,0.0
2.583399924613645,-9064.2001953125,-8848.7998046875,-9830.400390625,-8469.900390625,-9280.5,-9830.400390625,-9549.599609375,-9830.400390625,12819.2998046875,2312.39990234375,-9830.400390625,-9830.400390625,-6373.2001953125,-7165.2001953125,-8188.5,-7941.89990234375,-8.399999618530273,0.0,-9830.400390625,-8296.2001953125,-13.800000190734863,-2939.39990234375,-6668.7001953125,-4434.2998046875,0.0
2.5842464973414283,9830.099609375,9830.099609375,9713.400390625,9830.099609375,9830.099609375,9830.099609375,9830.099609375,9830.099609375,-1259.699951171875,-9830.400390625,9830.099609375,9830.099609375,9830.099609375,9830.099609375,9830.099609375,9830.099609375,-8.699999809265137,1.5,9830.099609375,9830.099609375,-14.100000381469727,-9830.400390625,9830.099609375,9830.099609375,0.0
2.585098202757216,-4964.39990234375,-7380.2998046875,-9050.7001953125,-9619.2001953125,-6960.0,-4542.2998046875,-3652.800048828125,-3142.800048828125,-20155.19921875,-9626.400390625,1758.0,-1533.5999755859375,-1503.0,906.2999877929688,1620.0,305.3999938964844,-9.0,1.2000000476837158,2629.199951171875,-2907.300048828125,-14.100000381469727,-1334.0999755859375,-2817.60009765625,-8500.7998046875,0.0
2.585948945794003,-5911.2001953125,-981.2999877929688,1125.5999755859375,1344.0,-4204.7998046875,-6594.2998046875,-7822.7998046875,-7617.0,26157.30078125,4846.5,-9830.400390625,-9830.400390625,-9823.7998046875,-9830.400390625,-9830.400390625,-9830.400390625,-8.399999618530273,0.8999999761581421,-9830.400390625,-9830.400390625,-14.100000381469727,9830.099609375,-9830.400390625,-5109.0,0.0
2.58679968883079,8256.900390625,8298.2998046875,9830.099609375,9063.2998046875,9830.099609375,9830.099609375,9830.099609375,9830.099609375,-29565.900390625,9830.099609375,9781.7998046875,9830.099609375,-5320.5,-4304.39990234375,-1422.9000244140625,-1349.699951171875,-8.399999618530273,1.2000000476837158,8370.0,9279.0,-14.100000381469727,9830.099609375,-1848.300048828125,-5623.7998046875,0.0
2.5877720124146895,-1384.199951171875,495.29998779296875,-426.8999938964844,2029.5,-665.0999755859375,-2715.60009765625,-2924.10009765625,-3267.60009765625,33493.19921875,3916.800048828125,-6772.2001953125,-4153.7998046875,1212.5999755859375,-3222.60009765625,-5737.5,-3312.60009765625,-8.699999809265137,1.5,-7080.89990234375,-474.0,-13.800000190734863,-3078.0,2328.300048828125,9506.400390625,0.0
2.5887555637535993,-9038.7001953125,-9830.400390625,-9830.400390625,-9830.400390625,-9830.400390625,-8496.900390625,-7960.5,-7829.39990234375,-28602.599609375,-9830.400390625,-5.699999809265137,-1141.199951171875,-5873.7001953125,-2283.300048828125,-2846.10009765625,-4410.0,-8.100000381469727,0.6000000238418579,-156.3000030517578,-388.79998779296875,-14.399999618530273,-9830.400390625,-4635.60009765625,-9041.400390625,0.0
2.5896858634544597,9830.099609375,9830.099609375,9830.099609375,9830.099609375,9830.099609375,9830.099609375,9830.099609375,9830.099609375,10448.099609375,-4776.2998046875,9830.099609375,9689.7001953125,9830.099609375,9830.099609375,9830.099609375,9830.099609375,-9.300000190734863,-0.6000000238418579,9830.099609375,9244.5,-14.100000381469727,-1821.9000244140625,9830.099609375,9830.099609375,0.0
2.6125667449936243,-8662.7998046875,-8043.2998046875,-7972.7998046875,-7743.2998046875,-8767.2001953125,-9070.2001953125,-8984.7001953125,-9174.2998046875,-2889.89990234375,9491.400390625,-9830.400390625,-9830.400390625,-8874.2998046875,-8989.7998046875,-8944.2001953125,-8936.7001953125,-8.699999809265137,1.5,-9754.5,-9830.400390625,-13.800000190734863,9830.099609375,-9607.2001953125,-8831.7001953125,0.0
2.6134784387004677,1491.0,1938.5999755859375,3190.800048828125,2330.699951171875,2477.39990234375,2418.89990234375,1713.9000244140625,2290.800048828125,-7187.7001953125,9830.099609375,580.2000122070312,2191.800048828125,-1179.9000244140625,-1935.9000244140625,-1528.5,-1292.4000244140625,-8.399999618530273,0.6000000238418579,-621.0,1295.699951171875,-14.100000381469727,9830.099609375,-754.2000122070312,-237.89999389648438,0.0
2.614376017515298,5712.0,5702.10009765625,5323.2001953125,5909.7001953125,5732.10009765625,5570.7001953125,5638.7998046875,5824.5,22452.30078125,2468.10009765625,6896.7001953125,7884.60009765625,6276.0,6360.0,5958.2998046875,6354.60009765625,-8.699999809265137,1.2000000476837158,6656.10009765625,9355.5,-13.800000190734863,-2673.89990234375,6967.5,6990.89990234375,0.0
2.6151269939289925,-9830.400390625,-9830.400390625,-9830.400390625,-9830.400390625,-9830.400390625,-9830.400390625,-9830.400390625,-9830.400390625,-30899.69921875,-9830.400390625,-9556.7998046875,-9830.400390625,-9161.400390625,-8493.599609375,-8958.0,-9313.5,-8.699999809265137,0.0,-9307.2001953125,-9830.400390625,-13.800000190734863,-9830.400390625,-9046.7998046875,-9667.2001953125,0.0
2.615845249456657,9830.099609375,9830.099609375,9830.099609375,9830.099609375,9830.099609375,9830.099609375,9830.099609375,9830.099609375,26750.099609375,-8559.900390625,9830.099609375,9830.099609375,9830.099609375,9830.099609375,9830.099609375,9830.099609375,-8.399999618530273,1.2000000476837158,9830.099609375,9830.099609375,-13.800000190734863,-4250.10009765625,9830.099609375,9830.099609375,0.0
2.6168246304865628,-6052.2001953125,-6020.39990234375,-5383.7998046875,-6027.89990234375,-5949.2998046875,-5559.2998046875,-5781.0,-4872.0,-29640.0,7601.10009765625,-5315.7001953125,-6854.39990234375,-7457.7001953125,-6898.7998046875,-6187.7998046875,-6403.5,-8.699999809265137,0.8999999761581421,-5066.10009765625,-8240.7001953125,-13.5,9830.099609375,-7524.0,-8371.2001953125,0.0
2.6179948833516455,-1768.5,-309.29998779296875,413.3999938964844,620.4000244140625,-868.5,-2126.10009765625,-2545.800048828125,-3222.300048828125,25045.80078125,9830.099609375,-7856.10009765625,-5290.2001953125,-2926.800048828125,-5268.0,-5918.7001953125,-4975.2001953125,-8.399999618530273,0.30000001192092896,-8191.7998046875,-4223.7001953125,-14.399999618530273,9830.099609375,-3525.0,-42.900001525878906,0.0
2.619240522571798,8553.0,7643.10009765625,7546.2001953125,7410.0,8594.400390625,9296.099609375,9278.400390625,9830.099609375,-9781.2001953125,3380.10009765625,9830.099609375,9830.099609375,8207.400390625,9765.2998046875,9830.099609375,9830.099609375,-8.699999809265137,0.8999999761581421,9830.099609375,9830.099609375,-13.800000190734863,-5085.0,9830.099609375,7225.2001953125,0.0
2.620590098724046,-9830.400390625,-9830.400390625,-9830.400390625,-9830.400390625,-9830.400390625,-9830.400390625,-9830.400390625,-9830.400390625,-5705.7001953125,-9830.400390625,-6892.2001953125,-6768.60009765625,-6643.5,-3807.60009765625,-6763.2001953125,-7426.7998046875,-8.699999809265137,1.5,-7023.60009765625,-5234.10009765625,-13.5,-9830.400390625,-5982.60009765625,-6848.10009765625,0.0
2.652781355510823,7747.7998046875,7385.7001953125,4871.7001953125,6354.60009765625,5525.39990234375,5151.2998046875,6806.7001953125,3923.699951171875,11856.0,-9199.2001953125,2887.199951171875,-544.5,9830.099609375,9830.099609375,9830.099609375,9830.099609375,-8.399999618530273,0.6000000238418579,5425.7998046875,-2858.699951171875,-14.100000381469727,-6042.2998046875,9830.099609375,9518.7001953125,0.0
2.654062602754008,5730.60009765625,6927.60009765625,9830.099609375,7203.60009765625,7924.7998046875,8205.900390625,6555.89990234375,8491.2001953125,-27417.0,4754.7001953125,5320.7998046875,5402.39990234375,-5488.2001953125,-3391.199951171875,-629.4000244140625,-1470.300048828125,-9.0,1.2000000476837158,4318.5,1901.699951171875,-13.800000190734863,9821.400390625,-5281.5,-9474.900390625,0.0
2.655496226672334,-9002.7001953125,-4809.60009765625,-2930.699951171875,-911.4000244140625,-7476.60009765625,-9830.099609375,-9830.400390625,-9830.400390625,35938.5,9830.099609375,-9830.400390625,-9830.400390625,-9830.400390625,-9830.400390625,-9830.400390625,-9830.400390625,-8.399999618530273,0.6000000238418579,-9830.400390625,-9830.400390625,-14.100000381469727,9213.0,-9830.400390625,-3120.0,0.0
2.6564521898132183,-1884.0,-3770.699951171875,-2664.60009765625,-3896.39990234375,-867.5999755859375,292.79998779296875,-295.20001220703125,1488.300048828125,-30306.900390625,-1415.0999755859375,4692.0,7073.7001953125,-3308.39990234375,-1759.5,-1259.0999755859375,-1686.9000244140625,-8.100000381469727,0.6000000238418579,3181.800048828125,7675.2001953125,-14.399999618530273,-7170.89990234375,-858.2999877929688,-3968.39990234375,0.0
2.6573725449310697,9642.599609375,9473.7001953125,7604.7001953125,9023.7001953125,8581.5,8166.2998046875,9087.599609375,7811.10009765625,22007.69921875,-9830.400390625,8171.7001953125,6818.7001953125,9830.099609375,9830.099609375,9830.099609375,9830.099609375,-8.699999809265137,1.2000000476837158,9458.400390625,7707.0,-14.100000381469727,-9830.400390625,9830.099609375,9830.099609375,0.0
2.6586220336672257,-9830.400390625,-9830.400390625,-9830.400390625,-9830.400390625,-9830.400390625,-9830.400390625,-9830.400390625,-9830.400390625,-18895.5,-9378.2998046875,-9830.400390625,-9830.400390625,-9830.400390625,-9795.900390625,-9830.400390625,-9830.400390625,-8.399999618530273,0.8999999761581421,-9830.400390625,-9830.400390625,-13.5,-6453.2998046875,-9830.400390625,-9830.400390625,0.0
2.6598583698903693,9114.900390625,9030.2998046875,9519.900390625,8782.7998046875,9108.2998046875,9578.7001953125,9493.2001953125,9629.7001953125,1185.5999755859375,5339.7001953125,9830.099609375,9574.5,6837.60009765625,7431.2998046875,8769.2998046875,8082.2998046875,-8.399999618530273,1.2000000476837158,9830.099609375,7054.2001953125,-14.100000381469727,9656.7001953125,6564.0,5276.10009765625,0.0
2.661096310078514,-1641.5999755859375,-716.7000122070312,-167.10000610351562,-26.100000381469727,-982.2000122070312,-1617.300048828125,-2060.39990234375,-1678.199951171875,13708.5,9830.099609375,-6935.39990234375,-5656.7998046875,-3151.199951171875,-4689.0,-4818.2998046875,-3939.60009765625,-9.0,0.30000001192092896,-6751.2001953125,-5199.2998046875,-13.800000190734863,9768.599609375,-3485.10009765625,-1051.800048828125,0.0
2.6624045039337245,-6476.39990234375,-6762.0,-6958.7998046875,-6794.39990234375,-6408.2998046875,-6395.39990234375,-6301.2001953125,-6593.39990234375,-19858.80078125,-2339.699951171875,-2999.39990234375,-1911.5999755859375,-5849.10009765625,-5359.5,-5490.0,-5772.2998046875,-8.399999618530273,-0.8999999761581421,-3792.300048828125,-1231.199951171875,-14.100000381469727,-6254.7001953125,-5106.2998046875,-5727.60009765625,0.0
2.663596570722827,9830.099609375,9830.099609375,9830.099609375,9830.099609375,9830.099609375,9830.099609375,9830.099609375,9830.099609375,25342.19921875,-9830.400390625,9830.099609375,9830.099609375,9830.099609375,9830.099609375,9830.099609375,9830.099609375,-8.699999809265137,2.0999999046325684,9830.099609375,9830.099609375,-14.100000381469727,-9830.400390625,9830.099609375,9830.099609375,0.0
2.664848305009985,-9830.400390625,-9830.400390625,-9830.400390625,-9830.400390625,-9830.400390625,-9830.400390625,-9830.400390625,-9830.400390625,-35123.3984375,-9830.400390625,-8758.2001953125,-9588.2998046875,-9830.400390625,-9287.400390625,-9265.7998046875,-9557.099609375,-8.399999618530273,0.6000000238418579,-8574.599609375,-9389.099609375,-13.800000190734863,-6228.0,-9830.400390625,-9830.400390625,0.0
2.665919753630976,6765.60009765625,7287.2998046875,7438.7998046875,7321.2001953125,6731.39990234375,6369.0,6415.5,5620.2001953125,28158.0,5105.39990234375,453.0,-310.5,5961.2998046875,4658.39990234375,4882.7998046875,4997.39990234375,-8.699999809265137,1.2000000476837158,1513.5,-1607.699951171875,-14.399999618530273,9803.7001953125,4557.89990234375,6215.39990234375,0.0
2.666910041622892,1265.0999755859375,1536.5999755859375,2724.300048828125,1965.5999755859375,2250.300048828125,2512.800048828125,1696.5,3368.699951171875,-18747.30078125,9830.099609375,3541.5,5609.7001953125,-2109.89990234375,-2145.300048828125,-1272.9000244140625,-935.0999755859375,-8.699999809265137,0.8999999761581421,1983.5999755859375,5610.60009765625,-14.100000381469727,9830.099609375,-1196.4000244140625,-1757.699951171875,0.0
2.6691677827589806,-9119.099609375,-8952.2998046875,-9830.400390625,-8629.5,-9358.7998046875,-9830.400390625,-9575.099609375,-9830.400390625,12004.2001953125,2155.199951171875,-9830.400390625,-9830.400390625,-6457.2001953125,-7236.2998046875,-8241.599609375,-7996.5,-8.399999618530273,0.30000001192092896,-9830.400390625,-8306.7001953125,-13.800000190734863,-3139.800048828125,-6706.7998046875,-4561.2001953125,0.0
2.671114675477781,9830.099609375,9830.099609375,9819.900390625,9830.099609375,9830.099609375,9830.099609375,9830.099609375,9830.099609375,-222.3000030517578,-9830.400390625,9830.099609375,9830.099609375,9830.099609375,9830.099609375,9830.099609375,9830.099609375,-8.699999809265137,0.6000000238418579,9830.099609375,9830.099609375,-14.100000381469727,-9830.400390625,9830.099609375,9830.099609375,0.0
2.6724889526910522,-5227.7998046875,-7682.10009765625,-9034.5,-9709.5,-7122.89990234375,-4756.2001953125,-3843.89990234375,-3362.10009765625,-20748.0,-9414.0,1573.5,-1634.0999755859375,-2148.0,433.20001220703125,1165.199951171875,-135.3000030517578,-9.300000190734863,1.5,2405.39990234375,-3036.60009765625,-13.800000190734863,-903.0,-3173.39990234375,-8781.0,0.0
2.673700587853173,-5814.89990234375,-840.0,1187.699951171875,1364.699951171875,-4142.7001953125,-6455.39990234375,-7628.7001953125,-7481.39990234375,26750.099609375,5362.7998046875,-9830.400390625,-9830.400390625,-9830.400390625,-9830.400390625,-9830.400390625,-9830.400390625,-8.399999618530273,1.5,-9830.400390625,-9830.400390625,-14.100000381469727,9830.099609375,-9830.400390625,-5019.89990234375,0.0
2.6836567194103824,8145.2998046875,8385.599609375,9830.099609375,9097.2001953125,9830.099609375,9830.099609375,9830.099609375,9830.099609375,-29714.099609375,9830.099609375,9772.2001953125,9830.099609375,-5464.2001953125,-4476.0,-1542.300048828125,-1410.5999755859375,-8.399999618530273,1.2000000476837158,8369.099609375,9311.7001953125,-14.100000381469727,9830.099609375,-1975.5,-5553.89990234375,0.0
2.686170774153708,-1694.699951171875,318.29998779296875,-658.5,1800.300048828125,-861.0,-2892.300048828125,-3064.800048828125,-3356.699951171875,33196.80078125,3634.199951171875,-6645.89990234375,-4067.10009765625,1309.5,-2992.800048828125,-5736.89990234375,-3269.10009765625,-8.699999809265137,2.0999999046325684,-6996.0,-391.5,-14.100000381469727,-3326.10009765625,2498.699951171875,9558.599609375,0.0
2.686999061680474,-8992.7998046875,-9830.400390625,-9830.400390625,-9830.400390625,-9830.400390625,-8494.5,-7948.5,-7836.2998046875,-28158.0,-9830.400390625,-50.70000076293945,-1188.9000244140625,-5689.7998046875,-1953.5999755859375,-2754.300048828125,-4281.89990234375,-8.100000381469727,1.2000000476837158,-171.0,-462.6000061035156,-13.800000190734863,-9830.400390625,-4318.2001953125,-8961.900390625,0.0
2.68808622915848,9830.099609375,9830.099609375,9830.099609375,9830.099609375,9830.099609375,9830.099609375,9830.099609375,9830.099609375,9781.2001953125,-4583.10009765625,9830.099609375,9648.599609375,9830.099609375,9830.099609375,9830.099609375,9830.099609375,-9.0,1.5,9830.099609375,9202.7998046875,-14.399999618530273,-1600.5,9830.099609375,9830.099609375,0.0
2.689142600508457,-8568.0,-7950.2998046875,-7838.39990234375,-7615.5,-8679.2998046875,-9016.5,-8911.7998046875,-9113.400390625,-2148.89990234375,9521.099609375,-9830.400390625,-9830.400390625,-8805.900390625,-8946.599609375,-8945.400390625,-8902.2001953125,-8.699999809265137,1.5,-9783.0,-9830.400390625,-13.800000190734863,9830.099609375,-9583.2001953125,-8708.7001953125,0.0
2.6903936932096144,1328.0999755859375,1787.0999755859375,3032.10009765625,2162.39990234375,2376.89990234375,2305.800048828125,1573.199951171875,2180.699951171875,-8151.0,9830.099609375,579.2999877929688,2250.0,-1304.699951171875,-2067.0,-1606.199951171875,-1402.800048828125,-8.699999809265137,0.30000001192092896,-645.0,1413.0,-14.699999809265137,9830.099609375,-839.7000122070312,-377.70001220703125,0.0
2.691603082820733,5847.89990234375,5817.2998046875,5410.5,6039.2998046875,5847.60009765625,5685.89990234375,5776.2001953125,5919.2998046875,22748.69921875,2246.699951171875,7040.39990234375,7949.39990234375,6450.0,6549.2998046875,6127.5,6540.89990234375,-9.0,0.8999999761581421,6796.2001953125,9423.2998046875,-13.800000190734863,-2933.10009765625,7126.2001953125,7155.2998046875,0.0
2.6925320993495925,-9830.400390625,-9830.400390625,-9830.400390625,-9830.400390625,-9830.400390625,-9830.400390625,-9830.400390625,-9830.400390625,-31418.400390625,-9830.400390625,-9540.900390625,-9830.400390625,-9199.7998046875,-8510.7001953125,-9014.400390625,-9353.400390625,-8.399999618530273,-0.30000001192092896,-9317.099609375,-9830.400390625,-14.399999618530273,-9830.400390625,-9088.7998046875,-9722.400390625,0.0
2.6929680570369956,9830.099609375,9830.099609375,9830.099609375,9830.099609375,9830.099609375,9830.099609375,9830.099609375,9830.099609375,26750.099609375,-8391.2998046875,9830.099609375,9830.099609375,9830.099609375,9830.099609375,9830.099609375,9830.099609375,-9.0,0.6000000238418579,9830.099609375,9830.099609375,-14.399999618530273,-4074.0,9830.099609375,9830.099609375,0.0
2.6941562743100946,-5948.39990234375,-5877.89990234375,-5251.5,-5887.7998046875,-5848.2001953125,-5464.7998046875,-5705.7001953125,-4813.2001953125,-29195.400390625,7728.89990234375,-5340.0,-6879.0,-7370.39990234375,-6837.2998046875,-6182.39990234375,-6400.2001953125,-8.399999618530273,0.30000001192092896,-5141.7001953125,-8225.7001953125,-13.800000190734863,9830.099609375,-7453.7998046875,-8261.099609375,0.0
2.6948219197857104,-1912.199951171875,-504.8999938964844,205.8000030517578,419.1000061035156,-998.7000122070312,-2217.0,-2652.89990234375,-3335.699951171875,24453.0,9830.099609375,-7780.7998046875,-5225.7001953125,-3043.199951171875,-5303.7001953125,-5902.7998046875,-5012.39990234375,-8.699999809265137,0.8999999761581421,-8126.7001953125,-4188.60009765625,-14.100000381469727,9829.2001953125,-3559.5,-178.1999969482422,0.0
2.695685173749509,8677.2001953125,7788.2998046875,7667.10009765625,7572.2998046875,8721.2998046875,9362.099609375,9344.7001953125,9830.099609375,-8966.099609375,2993.699951171875,9830.099609375,9830.099609375,8416.2001953125,9830.099609375,9830.099609375,9830.099609375,-8.699999809265137,0.8999999761581421,9830.099609375,9830.099609375,-14.100000381469727,-5512.5,9830.099609375,7441.2001953125,0.0
2.696472399772237,-9830.400390625,-9830.400390625,-9830.400390625,-9830.400390625,-9830.400390625,-9830.400390625,-9830.400390625,-9830.400390625,-6520.7998046875,-9830.400390625,-6855.60009765625,-6793.7998046875,-6792.89990234375,-3948.60009765625,-6819.2998046875,-7512.60009765625,-9.0,1.2000000476837158,-7053.2998046875,-5277.0,-13.800000190734863,-9830.400390625,-6279.60009765625,-7099.2001953125,0.0
2.697402057887097,7812.89990234375,7489.7998046875,5074.7998046875,6555.0,5675.39990234375,5266.7998046875,6893.7001953125,4047.0,12522.900390625,-9073.5,2839.199951171875,-604.2000122070312,9830.099609375,9830.099609375,9830.099609375,9830.099609375,-8.100000381469727,1.2000000476837158,5357.7001953125,-2884.199951171875,-14.399999618530273,-5892.60009765625,9830.099609375,9602.099609375,0.0
2.698101707420744,5404.2001953125,6528.2998046875,9830.099609375,6848.10009765625,7692.0,7997.39990234375,6222.60009765625,8309.7001953125,-27935.69921875,4960.2001953125,5280.89990234375,5388.0,-5772.89990234375,-3632.39990234375,-868.5,-1759.5,-8.699999809265137,1.7999999523162842,4171.2001953125,1870.800048828125,-14.399999618530273,9830.099609375,-5471.39990234375,-9693.599609375,0.0
2.699806722217321,-9200.400390625,-4952.7001953125,-3088.800048828125,-917.0999755859375,-7495.7998046875,-9830.400390625,-9830.400390625,-9830.400390625,35938.5,9830.099609375,-9830.400390625,-9830.400390625,-9830.400390625,-9830.400390625,-9830.400390625,-9830.400390625,-8.399999618530273,0.6000000238418579,-9830.400390625,-9830.400390625,-14.100000381469727,8989.5,-9830.400390625,-3004.5,0.0
2.7017539357291227,-1761.5999755859375,-3761.39990234375,-2616.300048828125,-3780.300048828125,-699.2999877929688,448.79998779296875,-186.89999389648438,1612.199951171875,-30306.900390625,-2004.0,4791.0,7176.89990234375,-3218.699951171875,-1565.4000244140625,-1121.699951171875,-1523.699951171875,-8.399999618530273,0.6000000238418579,3261.0,7819.7998046875,-14.399999618530273,-7384.2001953125,-620.4000244140625,-3620.39990234375,0.0
2.702841103207128,9682.2001953125,9480.900390625,7548.2998046875,8973.599609375,8582.7001953125,8181.89990234375,9066.900390625,7779.89990234375,21563.099609375,-9830.400390625,8151.60009765625,6754.5,9830.099609375,9830.099609375,9830.099609375,9830.099609375,-8.699999809265137,0.6000000238418579,9455.400390625,7600.7998046875,-13.800000190734863,-9830.400390625,9830.099609375,9830.099609375,0.0
2.7038153515490295,-9830.400390625,-9830.400390625,-9830.400390625,-9830.400390625,-9830.400390625,-9830.400390625,-9830.400390625,-9830.400390625,-18006.30078125,-9289.5,-9830.400390625,-9830.400390625,-9830.400390625,-9816.599609375,-9830.400390625,-9830.400390625,-8.699999809265137,-0.6000000238418579,-9830.400390625,-9830.400390625,-14.100000381469727,-6275.39990234375,-9830.400390625,-9830.400390625,0.0
2.7048325861529703,9011.400390625,8925.2998046875,9418.2001953125,8674.5,9030.0,9520.5,9411.2998046875,9598.2001953125,148.1999969482422,5658.60009765625,9830.099609375,9541.5,6593.10009765625,7176.60009765625,8583.2998046875,7906.7998046875,-8.399999618530273,0.6000000238418579,9830.099609375,7024.5,-14.399999618530273,9808.2001953125,6351.89990234375,5050.7998046875,0.0
2.705590299219671,-1536.9000244140625,-605.7000122070312,-53.099998474121094,84.9000015258789,-818.0999755859375,-1484.699951171875,-1965.5999755859375,-1573.5,14449.5,9830.099609375,-6899.10009765625,-5543.10009765625,-2982.0,-4565.39990234375,-4741.5,-3795.300048828125,-8.699999809265137,1.2000000476837158,-6720.60009765625,-5049.0,-13.800000190734863,9636.2998046875,-3315.89990234375,-839.4000244140625,0.0
2.706544658395554,-6598.5,-6930.2998046875,-7140.60009765625,-6963.0,-6552.60009765625,-6495.2998046875,-6415.7998046875,-6686.39990234375,-20599.80078125,-2439.89990234375,-3000.89990234375,-1959.9000244140625,-5990.7001953125,-5454.0,-5513.10009765625,-5845.5,-8.399999618530273,0.30000001192092896,-3790.199951171875,-1294.5,-13.800000190734863,-6356.39990234375,-5182.5,-5871.89990234375,0.0
2.7075939722995246,9830.099609375,9830.099609375,9830.099609375,9830.099609375,9830.099609375,9830.099609375,9830.099609375,9830.099609375,25564.5,-9830.400390625,9830.099609375,9830.099609375,9830.099609375,9830.099609375,9830.099609375,9830.099609375,-8.699999809265137,1.2000000476837158,9830.099609375,9830.099609375,-14.100000381469727,-9830.400390625,9830.099609375,9830.099609375,0.0
2.7085300462743906,-9830.400390625,-9830.400390625,-9830.400390625,-9830.400390625,-9830.400390625,-9830.400390625,-9830.400390625,-9830.400390625,-35345.69921875,-9830.400390625,-8776.5,-9577.7998046875,-9830.400390625,-9298.2001953125,-9230.400390625,-9549.2998046875,-8.399999618530273,0.0,-8577.2998046875,-9426.2998046875,-13.800000190734863,-5886.0,-9830.400390625,-9830.400390625,0.0
2.7093217633991227,6669.2998046875,7164.89990234375,7316.39990234375,7208.10009765625,6633.2998046875,6264.2998046875,6302.10009765625,5556.60009765625,27787.5,5317.5,390.0,-267.29998779296875,5727.89990234375,4443.0,4711.2001953125,4834.2001953125,-8.399999618530273,0.8999999761581421,1461.5999755859375,-1620.5999755859375,-14.399999618530273,9830.099609375,4376.10009765625,6050.10009765625,0.0
2.7100012029737512,1380.0,1632.5999755859375,2772.300048828125,2070.60009765625,2342.699951171875,2565.0,1791.5999755859375,3444.0,-18080.400390625,9830.099609375,3584.39990234375,5703.2998046875,-1929.9000244140625,-1968.300048828125,-1066.199951171875,-768.0,-9.0,0.8999999761581421,2091.300048828125,5755.2001953125,-14.100000381469727,9830.099609375,-991.2000122070312,-1552.5,0.0
2.7107765596554687,-9181.7998046875,-9029.7001953125,-9830.400390625,-8727.2998046875,-9422.7001953125,-9830.400390625,-9623.7001953125,-9830.400390625,11115.0,1998.300048828125,-9830.400390625,-9830.400390625,-6605.7001953125,-7298.10009765625,-8263.2001953125,-8042.7001953125,-8.399999618530273,0.30000001192092896,-9830.400390625,-8257.5,-13.800000190734863,-3341.10009765625,-6775.7998046875,-4715.39990234375,0.0
2.7114932112181314,9830.099609375,9830.099609375,9811.5,9830.099609375,9830.099609375,9830.099609375,9830.099609375,9830.099609375,592.7999877929688,-9830.400390625,9830.099609375,9830.099609375,9830.099609375,9830.099609375,9830.099609375,9830.099609375,-8.399999618530273,0.0,9830.099609375,9830.099609375,-14.100000381469727,-9830.400390625,9830.099609375,9830.099609375,0.0
2.712106888227699,-5405.39990234375,-7854.2998046875,-9080.7001953125,-9735.599609375,-7226.7001953125,-4848.2998046875,-4008.0,-3440.39990234375,-21637.19921875,-9156.900390625,1513.5,-1731.5999755859375,-2824.5,14.699999809265137,891.9000244140625,-462.0,-8.399999618530273,2.4000000953674316,2281.199951171875,-3228.60009765625,-13.800000190734863,-469.5,-3487.800048828125,-9051.599609375,0.0
2.7126320263691848,-5507.10009765625,-689.7000122070312,1357.199951171875,1669.5,-3919.199951171875,-6256.5,-7473.60009765625,-7391.39990234375,27417.0,5883.89990234375,-9830.400390625,-9830.400390625,-9830.400390625,-9830.400390625,-9830.400390625,-9830.400390625,-8.699999809265137,0.8999999761581421,-9830.400390625,-9830.400390625,-13.800000190734863,9830.099609375,-9830.400390625,-4753.2001953125,0.0
2.7131170653856334,8025.0,8162.7001953125,9830.099609375,9261.2998046875,9830.099609375,9830.099609375,9830.099609375,9830.099609375,-29640.0,9830.099609375,9786.900390625,9830.099609375,-5642.7001953125,-4683.0,-1505.4000244140625,-1521.300048828125,-8.100000381469727,1.7999999523162842,8402.7001953125,9323.7001953125,-14.399999618530273,9830.099609375,-2046.5999755859375,-5586.2998046875,0.0
2.713581252857063,-1873.800048828125,-71.0999984741211,-867.9000244140625,1610.699951171875,-986.4000244140625,-3024.0,-3254.699951171875,-3456.300048828125,32900.3984375,3320.10009765625,-6589.2001953125,-4079.10009765625,1441.199951171875,-2705.699951171875,-5646.89990234375,-3248.39990234375,-9.0,0.6000000238418579,-6913.2001953125,-316.5,-14.100000381469727,-3597.60009765625,2723.10009765625,9667.2001953125,0.0
2.7140778404215222,-8951.7001953125,-9830.400390625,-9830.400390625,-9830.400390625,-9830.400390625,-8502.900390625,-7925.7001953125,-7798.5,-27713.400390625,-9830.400390625,-15.0,-1249.800048828125,-5358.2998046875,-1506.9000244140625,-2561.39990234375,-4145.7001953125,-8.399999618530273,0.8999999761581421,-63.900001525878906,-572.0999755859375,-14.100000381469727,-9830.400390625,-3920.699951171875,-8850.599609375,0.0
2.71553488222887,9830.099609375,9830.099609375,9830.099609375,9830.099609375,9830.099609375,9830.099609375,9830.099609375,9830.099609375,8892.0,-4434.89990234375,9830.099609375,9639.0,9830.099609375,9830.099609375,9830.099609375,9830.099609375,-9.0,0.8999999761581421,9830.099609375,9205.5,-14.399999618530273,-1441.199951171875,9830.099609375,9830.099609375,0.0
2.717018229062242,-8473.2001953125,-7836.0,-7703.39990234375,-7452.0,-8596.2001953125,-8917.7998046875,-8839.7998046875,-9056.400390625,-1037.4000244140625,9549.0,-9830.400390625,-9830.400390625,-8734.2001953125,-8897.400390625,-8903.099609375,-8863.5,-8.699999809265137,0.8999999761581421,-9774.2998046875,-9830.400390625,-13.800000190734863,9830.099609375,-9483.0,-8583.599609375,0.0
2.7172989229375015,1213.199951171875,1629.9000244140625,2908.5,2016.5999755859375,2245.800048828125,2162.39990234375,1431.9000244140625,2073.89990234375,-8892.0,9830.099609375,573.9000244140625,2241.300048828125,-1440.5999755859375,-2182.5,-1725.5999755859375,-1532.0999755859375,-8.699999809265137,1.2000000476837158,-663.5999755859375,1425.300048828125,-14.399999618530273,9830.099609375,-970.2000122070312,-521.4000244140625,0.0
2.717575125710757,5988.0,5931.89990234375,5530.5,6154.2001953125,5943.60009765625,5824.5,5913.60009765625,5998.2001953125,23415.599609375,2046.5999755859375,7150.7998046875,8003.7001953125,6644.39990234375,6739.7998046875,6350.39990234375,6741.60009765625,-8.699999809265137,2.0999999046325684,6945.2998046875,9484.2001953125,-13.800000190734863,-3226.5,7314.0,7339.2001953125,0.0
2.7178449126240065,-9830.400390625,-9830.400390625,-9830.400390625,-9830.400390625,-9830.400390625,-9830.400390625,-9830.400390625,-9830.400390625,-31714.80078125,-9830.400390625,-9606.599609375,-9830.400390625,-9235.5,-8534.400390625,-9038.7001953125,-9404.099609375,-8.399999618530273,-0.30000001192092896,-9368.7001953125,-9830.400390625,-14.100000381469727,-9830.400390625,-9145.7998046875,-9790.5,0.0
2.7181140579512557,9830.099609375,9830.099609375,9830.099609375,9830.099609375,9830.099609375,9830.099609375,9830.099609375,9830.099609375,26824.19921875,-8248.5,9830.099609375,9830.099609375,9830.099609375,9830.099609375,9830.099609375,9830.099609375,-8.699999809265137,1.2000000476837158,9830.099609375,9830.099609375,-14.399999618530273,-3903.0,9830.099609375,9830.099609375,0.0
2.718380316141502,-5804.7001953125,-5750.7001953125,-5113.5,-5703.2998046875,-5706.60009765625,-5322.89990234375,-5586.89990234375,-4699.2001953125,-28380.30078125,7813.5,-5355.0,-6816.60009765625,-7253.10009765625,-6782.7001953125,-6129.60009765625,-6300.2998046875,-8.699999809265137,0.6000000238418579,-5149.5,-8175.89990234375,-13.800000190734863,9830.099609375,-7361.10009765625,-8107.7998046875,0.0
2.7189093037989913,-2047.800048828125,-655.7999877929688,54.0,257.3999938964844,-1131.5999755859375,-2324.39990234375,-2738.39990234375,-3392.10009765625,23860.19921875,9830.099609375,-7756.2001953125,-5179.5,-3141.300048828125,-5345.39990234375,-5941.2001953125,-5067.89990234375,-8.399999618530273,0.30000001192092896,-8071.7998046875,-4086.60009765625,-14.399999618530273,9621.0,-3623.699951171875,-310.79998779296875,0.0
2.7193096534633616,8819.7001953125,7912.2001953125,7790.39990234375,7724.10009765625,8823.0,9453.2998046875,9450.599609375,9830.099609375,-7780.5,2597.10009765625,9830.099609375,9830.099609375,8631.599609375,9830.099609375,9830.099609375,9830.099609375,-8.399999618530273,1.5,9830.099609375,9830.099609375,-14.100000381469727,-5907.60009765625,9830.099609375,7686.0,0.0
2.719588101787619,-9830.400390625,-9830.400390625,-9830.400390625,-9830.400390625,-9830.400390625,-9830.400390625,-9830.400390625,-9830.400390625,-7410.0,-9830.400390625,-6888.89990234375,-6840.60009765625,-6890.10009765625,-4248.89990234375,-6871.5,-7602.2998046875,-8.699999809265137,1.5,-7109.7001953125,-5393.10009765625,-13.5,-9830.400390625,-6506.39990234375,-7338.60009765625,0.0
2.7201748321851618,7917.89990234375,7633.7998046875,5305.7998046875,6836.39990234375,5862.2998046875,5444.39990234375,7015.5,4164.60009765625,13412.099609375,-8936.7001953125,2826.60009765625,-627.9000244140625,9830.099609375,9830.099609375,9830.099609375,9830.099609375,-8.100000381469727,0.8999999761581421,5346.60009765625,-2965.199951171875,-14.399999618530273,-5736.2998046875,9830.099609375,9709.2001953125,0.0
2.720434674515402,5146.2001953125,6249.60009765625,9830.099609375,6615.89990234375,7403.7001953125,7804.5,5996.7001953125,8163.2998046875,-28232.099609375,5203.2001953125,5229.0,5410.5,-5914.7998046875,-3847.800048828125,-1071.9000244140625,-1976.4000244140625,-8.699999809265137,1.7999999523162842,4116.0,1814.699951171875,-13.5,9830.099609375,-5524.7998046875,-9795.900390625,0.0
2.720693875259642,-9314.7001953125,-5038.5,-3081.60009765625,-939.0,-7572.60009765625,-9830.400390625,-9830.400390625,-9830.400390625,36160.80078125,9830.099609375,-9830.400390625,-9830.400390625,-9830.400390625,-9830.400390625,-9830.400390625,-9830.400390625,-8.399999618530273,1.2000000476837158,-9830.400390625,-9830.400390625,-13.800000190734863,8767.5,-9830.400390625,-2873.10009765625,0.0
2.7471028382160703,-1598.699951171875,-3636.0,-2509.800048828125,-3691.199951171875,-624.0,625.5,-69.9000015258789,1713.5999755859375,-29936.400390625,-2541.0,4866.2998046875,7253.10009765625,-3061.5,-1439.4000244140625,-948.9000244140625,-1368.9000244140625,-8.399999618530273,0.6000000238418579,3365.10009765625,7919.7001953125,-14.399999618530273,-7573.2001953125,-433.5,-3212.10009765625,0.0
2.7474608432044016,9733.2001953125,9527.400390625,7544.7001953125,8967.900390625,8598.900390625,8208.599609375,9117.900390625,7790.10009765625,21118.5,-9830.400390625,8136.0,6720.89990234375,9830.099609375,9830.099609375,9830.099609375,9830.099609375,-8.399999618530273,0.8999999761581421,9471.900390625,7571.39990234375,-13.800000190734863,-9830.400390625,9830.099609375,9830.099609375,0.0
2.747785485720702,-9830.400390625,-9830.400390625,-9830.400390625,-9830.400390625,-9830.400390625,-9830.400390625,-9830.400390625,-9830.400390625,-16820.69921875,-9174.900390625,-9830.400390625,-9830.400390625,-9830.400390625,-9809.099609375,-9830.400390625,-9830.400390625,-8.399999618530273,0.8999999761581421,-9830.400390625,-9830.400390625,-13.800000190734863,-6059.39990234375,-9830.400390625,-9830.400390625,0.0
2.7481236015430146,8897.099609375,8827.2001953125,9386.099609375,8601.900390625,8946.0,9432.900390625,9314.7001953125,9525.0,-444.6000061035156,5998.7998046875,9830.099609375,9461.7001953125,6382.5,6939.0,8439.2998046875,7742.7001953125,-8.399999618530273,0.6000000238418579,9830.099609375,6874.2001953125,-14.100000381469727,9830.099609375,6121.2001953125,4839.89990234375,0.0
2.748500533318363,-1405.800048828125,-475.79998779296875,42.900001525878906,228.3000030517578,-738.5999755859375,-1401.0,-1888.199951171875,-1524.5999755859375,15412.7998046875,9830.099609375,-6876.0,-5484.89990234375,-2842.5,-4493.39990234375,-4646.10009765625,-3717.0,-8.699999809265137,1.5,-6714.2998046875,-4956.89990234375,-14.100000381469727,9486.900390625,-3186.300048828125,-630.5999755859375,0.0
2.748835120417673,-6733.7998046875,-7067.10009765625,-7281.89990234375,-7107.0,-6676.7998046875,-6610.5,-6510.2998046875,-6756.0,-21118.5,-2535.89990234375,-2979.300048828125,-1971.0,-6074.39990234375,-5497.5,-5554.5,-5886.60009765625,-8.399999618530273,0.30000001192092896,-3748.800048828125,-1320.0,-14.100000381469727,-6492.2998046875,-5256.89990234375,-6000.89990234375,0.0
2.7491164558789327,9830.099609375,9830.099609375,9830.099609375,9830.099609375,9830.099609375,9830.099609375,9830.099609375,9830.099609375,25860.900390625,-9830.400390625,9830.099609375,9830.099609375,9830.099609375,9830.099609375,9830.099609375,9830.099609375,-9.300000190734863,1.5,9830.099609375,9830.099609375,-13.800000190734863,-9830.400390625,9830.099609375,9830.099609375,0.0
2.7494391736372314,-9830.400390625,-9830.400390625,-9830.400390625,-9830.400390625,-9830.400390625,-9830.400390625,-9830.400390625,-9830.400390625,-35049.30078125,-9823.5,-8734.5,-9600.599609375,-9830.400390625,-9264.0,-9194.099609375,-9513.900390625,-8.699999809265137,1.2000000476837158,-8522.099609375,-9440.7001953125,-13.5,-5574.60009765625,-9830.400390625,-9830.400390625,0.0
2.7497343031975046,6502.5,7053.2998046875,7238.39990234375,7115.7001953125,6513.89990234375,6183.2998046875,6165.89990234375,5468.7001953125,27713.400390625,5540.7001953125,258.6000061035156,-294.8999938964844,5545.7998046875,4187.39990234375,4489.2001953125,4585.2001953125,-8.399999618530273,1.2000000476837158,1287.9000244140625,-1601.0999755859375,-14.399999618530273,9830.099609375,4202.7001953125,5911.5,0.0
2.79681035519805,1490.0999755859375,1737.5999755859375,2864.39990234375,2157.0,2417.10009765625,2650.199951171875,1890.5999755859375,3489.300048828125,-17191.19921875,9830.099609375,3702.300048828125,5752.5,-1725.0,-1779.0,-877.2000122070312,-582.2999877929688,-8.699999809265137,1.2000000476837158,2190.60009765625,5862.89990234375,-14.100000381469727,9830.099609375,-806.4000244140625,-1310.699951171875,0.0
2.7974150500036092,-9261.0,-9134.7001953125,-9830.400390625,-8869.5,-9488.099609375,-9830.400390625,-9656.7001953125,-9830.400390625,10374.0,1831.5,-9830.400390625,-9830.400390625,-6712.7998046875,-7365.0,-8327.7001953125,-8157.89990234375,-8.699999809265137,0.30000001192092896,-9830.400390625,-8266.7998046875,-13.800000190734863,-3521.39990234375,-6840.60009765625,-4886.39990234375,0.0
2.797995043748146,9830.099609375,9830.099609375,9830.099609375,9830.099609375,9830.099609375,9830.099609375,9830.099609375,9830.099609375,1630.199951171875,-9830.400390625,9830.099609375,9830.099609375,9830.099609375,9830.099609375,9830.099609375,9830.099609375,-8.699999809265137,1.5,9830.099609375,9830.099609375,-14.100000381469727,-9830.400390625,9830.099609375,9830.099609375,0.0
2.7985679800466756,-5624.10009765625,-7947.60009765625,-9039.0,-9780.599609375,-7300.5,-4977.89990234375,-4178.10009765625,-3537.60009765625,-22304.099609375,-8824.2001953125,1391.0999755859375,-1879.199951171875,-3475.800048828125,-432.0,517.7999877929688,-928.7999877929688,-8.699999809265137,1.2000000476837158,2144.10009765625,-3398.10009765625,-14.100000381469727,7.5,-3777.300048828125,-9279.900390625,0.0
2.7991364252432014,-5418.0,-525.9000244140625,1484.4000244140625,1786.199951171875,-3680.10009765625,-6100.5,-7246.5,-7206.89990234375,28009.80078125,6453.0,-9830.400390625,-9830.400390625,-9830.400390625,-9830.400390625,-9830.400390625,-9830.400390625,-9.0,0.6000000238418579,-9830.400390625,-9830.400390625,-13.800000190734863,9830.099609375,-9830.400390625,-4642.5,0.0
2.799702624888725,7886.39990234375,8095.2001953125,9830.099609375,9346.7998046875,9830.099609375,9830.099609375,9830.099609375,9830.099609375,-30010.5,9830.099609375,9792.900390625,9830.099609375,-5668.5,-4757.7001953125,-1596.0,-1707.5999755859375,-8.399999618530273,1.7999999523162842,8429.099609375,9364.7998046875,-14.100000381469727,9830.099609375,-2124.60009765625,-5566.7998046875,0.0
2.800268824534249,-2078.39990234375,-263.70001220703125,-1024.5,1446.0,-1163.0999755859375,-3165.60009765625,-3392.699951171875,-3636.300048828125,32678.099609375,3005.10009765625,-6510.2998046875,-3978.0,1643.4000244140625,-2382.89990234375,-5619.2998046875,-3216.89990234375,-9.0,0.8999999761581421,-6838.7998046875,-159.0,-13.5,-3844.5,2937.89990234375,9765.0,0.0
2.8008350241797726,-8928.2998046875,-9830.400390625,-9830.400390625,-9830.400390625,-9830.400390625,-8454.599609375,-7874.10009765625,-7801.7998046875,-27046.5,-9830.400390625,26.399999618530273,-1247.699951171875,-4823.39990234375,-1002.0,-2363.10009765625,-3964.800048828125,-8.399999618530273,0.8999999761581421,-13.199999809265137,-578.0999755859375,-14.100000381469727,-9830.400390625,-3530.10009765625,-8678.7001953125,0.0
2.8014034693762984,9830.099609375,9830.099609375,9830.099609375,9830.099609375,9830.099609375,9830.099609375,9830.099609375,9830.099609375,8373.2998046875,-4291.5,9830.099609375,9624.599609375,9830.099609375,9830.099609375,9830.099609375,9830.099609375,-9.0,0.6000000238418579,9830.099609375,9143.7001953125,-13.800000190734863,-1218.5999755859375,9830.099609375,9830.099609375,0.0
2.801968065056821,-8407.7998046875,-7710.0,-7577.10009765625,-7317.60009765625,-8482.5,-8846.099609375,-8780.400390625,-8997.599609375,222.3000030517578,9579.599609375,-9830.400390625,-9830.400390625,-8638.2001953125,-8803.5,-8846.099609375,-8828.400390625,-8.699999809265137,0.6000000238418579,-9785.7001953125,-9830.400390625,-14.100000381469727,9830.099609375,-9414.2998046875,-8452.5,0.0
2.8025291320143397,1070.699951171875,1495.800048828125,2780.10009765625,1843.199951171875,2084.39990234375,2076.89990234375,1307.4000244140625,1973.0999755859375,-9633.0,9830.099609375,597.2999877929688,2289.0,-1582.5,-2334.300048828125,-1839.300048828125,-1671.5999755859375,-8.399999618530273,0.6000000238418579,-684.2999877929688,1490.4000244140625,-14.399999618530273,9830.099609375,-1110.9000244140625,-700.5,0.0
2.8031033514848707,6051.60009765625,6040.5,5592.2998046875,6226.5,6049.2001953125,5880.2998046875,5977.5,6040.5,24304.80078125,1826.4000244140625,7230.2998046875,8070.0,6812.39990234375,6927.89990234375,6510.2998046875,6871.7998046875,-8.699999809265137,1.2000000476837158,7054.7998046875,9518.400390625,-14.100000381469727,-3541.800048828125,7458.60009765625,7479.2998046875,0.0
2.8036737214393983,-9830.400390625,-9830.400390625,-9830.400390625,-9830.400390625,-9830.400390625,-9830.400390625,-9830.400390625,-9830.400390625,-32085.30078125,-9830.400390625,-9624.2998046875,-9830.400390625,-9309.2998046875,-8600.7001953125,-9113.7001953125,-9471.0,-8.100000381469727,1.2000000476837158,-9348.2998046875,-9830.400390625,-13.800000190734863,-9830.400390625,-9268.2001953125,-9830.400390625,0.0
2.8042588478719397,9830.099609375,9830.099609375,9830.099609375,9830.099609375,9830.099609375,9830.099609375,9830.099609375,9830.099609375,26527.80078125,-8100.0,9830.099609375,9830.099609375,9830.099609375,9830.099609375,9830.099609375,9830.099609375,-8.699999809265137,1.2000000476837158,9830.099609375,9830.099609375,-14.100000381469727,-3738.89990234375,9830.099609375,9830.099609375,0.0
2.80488599818752,-5712.0,-5611.2001953125,-4968.89990234375,-5591.39990234375,-5596.5,-5236.2001953125,-5496.2998046875,-4629.0,-28306.19921875,7919.7001953125,-5361.0,-6810.2998046875,-7170.0,-6738.89990234375,-6096.2998046875,-6258.2998046875,-8.699999809265137,1.2000000476837158,-5147.10009765625,-8142.2998046875,-13.800000190734863,9830.099609375,-7292.10009765625,-7997.39990234375,0.0
2.805455084970046,-2181.300048828125,-826.5,-137.6999969482422,16.799999237060547,-1290.9000244140625,-2476.800048828125,-2875.199951171875,-3483.300048828125,22896.900390625,9830.099609375,-7656.2998046875,-5105.39990234375,-3241.199951171875,-5357.10009765625,-5948.39990234375,-5110.2001953125,-8.100000381469727,0.6000000238418579,-8026.7998046875,-3999.60009765625,-14.399999618530273,9400.5,-3711.0,-500.1000061035156,0.0
2.8060228885805714,8873.7001953125,8040.89990234375,7899.89990234375,7803.60009765625,8896.7998046875,9520.2001953125,9538.5,9830.099609375,-7261.7998046875,2258.699951171875,9830.099609375,9830.099609375,8784.2998046875,9830.099609375,9830.099609375,9830.099609375,-8.399999618530273,0.8999999761581421,9830.099609375,9830.099609375,-13.800000190734863,-6271.7998046875,9830.099609375,7851.60009765625,0.0
2.806592937742099,-9830.400390625,-9830.400390625,-9830.400390625,-9830.400390625,-9830.400390625,-9830.400390625,-9830.400390625,-9830.400390625,-8373.2998046875,-9830.400390625,-6893.7001953125,-6860.10009765625,-7041.60009765625,-4396.5,-6990.0,-7708.2001953125,-9.0,0.6000000238418579,-7092.0,-5485.5,-13.800000190734863,-9830.400390625,-6773.39990234375,-7616.10009765625,0.0
2.840919713531851,8037.0,7817.10009765625,5593.7998046875,7036.7998046875,6014.10009765625,5549.7001953125,7098.60009765625,4282.2001953125,14153.099609375,-8822.099609375,2781.300048828125,-712.7999877929688,9830.099609375,9830.099609375,9830.099609375,9830.099609375,-8.699999809265137,1.2000000476837158,5334.0,-3058.800048828125,-14.100000381469727,-5574.60009765625,9830.099609375,9830.099609375,0.0
2.8415343529204193,4890.89990234375,5987.10009765625,9782.7001953125,6422.7001953125,7216.2001953125,7574.39990234375,5812.5,7980.89990234375,-28528.5,5401.7998046875,5221.5,5396.39990234375,-5961.2998046875,-4009.800048828125,-1276.199951171875,-2174.10009765625,-9.0,1.5,3996.60009765625,1736.4000244140625,-14.100000381469727,9830.099609375,-5642.39990234375,-9830.400390625,0.0
2.842113063492955,-9427.7998046875,-4971.2998046875,-3017.10009765625,-856.7999877929688,-7632.0,-9830.400390625,-9830.400390625,-9830.400390625,36383.1015625,9830.099609375,-9830.400390625,-9830.400390625,-9830.400390625,-9830.400390625,-9830.400390625,-9830.400390625,-8.100000381469727,0.8999999761581421,-9830.400390625,-9830.400390625,-14.100000381469727,8530.5,-9830.400390625,-2609.39990234375,0.0
2.8426847166194835,-1511.4000244140625,-3424.5,-2415.60009765625,-3576.89990234375,-466.79998779296875,743.0999755859375,67.19999694824219,1760.699951171875,-29714.099609375,-3037.5,4934.10009765625,7319.7001953125,-2869.800048828125,-1217.699951171875,-812.0999755859375,-1210.5,-8.399999618530273,0.8999999761581421,3458.10009765625,8063.7001953125,-14.100000381469727,-7770.60009765625,-149.6999969482422,-2831.699951171875,0.0
2.8432563697460123,9774.599609375,9524.099609375,7467.89990234375,8899.7998046875,8586.2998046875,8209.7998046875,9175.5,7811.7001953125,20229.30078125,-9830.400390625,8167.2001953125,6670.7998046875,9830.099609375,9830.099609375,9830.099609375,9830.099609375,-8.699999809265137,0.6000000238418579,9483.0,7464.2998046875,-14.100000381469727,-9830.400390625,9830.099609375,9830.099609375,0.0
2.843821607012535,-9830.400390625,-9830.400390625,-9830.400390625,-9830.400390625,-9830.400390625,-9830.400390625,-9830.400390625,-9830.400390625,-16302.0,-9074.099609375,-9830.400390625,-9830.400390625,-9830.400390625,-9809.7001953125,-9830.400390625,-9830.400390625,-8.699999809265137,0.8999999761581421,-9830.400390625,-9830.400390625,-13.800000190734863,-5855.7001953125,-9830.400390625,-9830.400390625,0.0
2.8443884482440596,8762.7001953125,8727.599609375,9277.2001953125,8458.7998046875,8832.599609375,9369.900390625,9210.2998046875,9467.099609375,-1407.9000244140625,6283.2001953125,9830.099609375,9369.2998046875,6110.39990234375,6686.7001953125,8215.2001953125,7498.7998046875,-8.699999809265137,0.6000000238418579,9830.099609375,6786.2998046875,-14.399999618530273,9830.099609375,5880.0,4640.39990234375,0.0
2.8449594597845875,-1272.5999755859375,-346.20001220703125,159.89999389648438,393.6000061035156,-605.0999755859375,-1304.0999755859375,-1746.300048828125,-1430.0999755859375,16227.900390625,9830.099609375,-6827.39990234375,-5382.2998046875,-2673.60009765625,-4360.7998046875,-4577.39990234375,-3600.300048828125,-8.699999809265137,0.8999999761581421,-6657.0,-4817.39990234375,-14.100000381469727,9343.2001953125,-3011.10009765625,-429.6000061035156,0.0
2.845521809914108,-6856.5,-7203.60009765625,-7449.89990234375,-7282.5,-6817.2001953125,-6738.2998046875,-6610.2001953125,-6879.60009765625,-21785.400390625,-2638.800048828125,-2943.89990234375,-2010.300048828125,-6181.5,-5537.39990234375,-5595.0,-5955.60009765625,-8.100000381469727,0.0,-3733.5,-1360.800048828125,-14.100000381469727,-6607.5,-5349.2998046875,-6125.7001953125,0.0
2.872188690442775,9830.099609375,9830.099609375,9830.099609375,9830.099609375,9830.099609375,9830.099609375,9830.099609375,9830.099609375,26083.19921875,-9830.400390625,9830.099609375,9830.099609375,9830.099609375,9830.099609375,9830.099609375,9830.099609375,-8.699999809265137,1.2000000476837158,9830.099609375,9830.099609375,-13.800000190734863,-9830.400390625,9830.099609375,9830.099609375,0.0
2.8724664971810316,-9830.400390625,-9830.400390625,-9830.400390625,-9830.400390625,-9830.400390625,-9830.400390625,-9830.400390625,-9830.400390625,-34975.19921875,-9717.0,-8730.2998046875,-9603.0,-9830.400390625,-9212.099609375,-9160.2001953125,-9485.7001953125,-8.399999618530273,0.30000001192092896,-8502.0,-9466.5,-14.100000381469727,-5233.5,-9830.400390625,-9830.400390625,0.0
2.8727311514062763,6366.60009765625,6918.2998046875,7092.2998046875,6996.89990234375,6374.10009765625,6051.0,6021.0,5371.2001953125,27268.80078125,5729.10009765625,156.89999389648438,-338.70001220703125,5326.2001953125,3945.89990234375,4251.2998046875,4352.7001953125,-8.399999618530273,0.30000001192092896,1126.199951171875,-1678.800048828125,-14.399999618530273,9830.099609375,3945.89990234375,5729.10009765625,0.0
2.8729916353225176,1598.699951171875,1849.199951171875,2919.300048828125,2255.10009765625,2510.10009765625,2731.800048828125,1972.800048828125,3555.89990234375,-16672.5,9830.099609375,3785.699951171875,5903.10009765625,-1521.0,-1569.300048828125,-711.2999877929688,-405.0,-8.699999809265137,1.2000000476837158,2295.89990234375,6000.2998046875,-13.5,9734.400390625,-581.0999755859375,-1097.0999755859375,0.0
2.873251798445758,-9348.0,-9265.2001953125,-9830.400390625,-9025.2001953125,-9603.2998046875,-9830.400390625,-9718.2001953125,-9830.400390625,9188.400390625,1669.5,-9830.400390625,-9830.400390625,-6826.5,-7447.2001953125,-8386.5,-8207.099609375,-8.399999618530273,0.6000000238418579,-9830.400390625,-8274.599609375,-13.800000190734863,-3743.10009765625,-6952.7998046875,-5074.2001953125,0.0
2.873516773464003,9830.099609375,9830.099609375,9830.099609375,9830.099609375,9830.099609375,9830.099609375,9830.099609375,9830.099609375,2371.199951171875,-9830.400390625,9830.099609375,9830.099609375,9830.099609375,9830.099609375,9830.099609375,9830.099609375,-8.399999618530273,1.2000000476837158,9830.099609375,9830.099609375,-14.399999618530273,-9830.400390625,9830.099609375,9830.099609375,0.0
2.8737772573802443,-5784.60009765625,-8112.60009765625,-9049.7998046875,-9828.2998046875,-7379.7001953125,-5064.2998046875,-4315.5,-3686.10009765625,-23045.099609375,-8434.7998046875,1226.699951171875,-1948.800048828125,-4056.0,-810.2999877929688,181.1999969482422,-1194.9000244140625,-8.699999809265137,0.6000000238418579,1934.699951171875,-3550.199951171875,-13.5,459.8999938964844,-4101.60009765625,-9520.5,0.0
2.874036458124484,-5100.89990234375,-371.70001220703125,1582.5,2109.60009765625,-3451.199951171875,-5845.2001953125,-6978.89990234375,-7061.7001953125,28454.400390625,6990.89990234375,-9830.400390625,-9830.400390625,-9830.400390625,-9830.400390625,-9830.400390625,-9830.400390625,-8.699999809265137,0.6000000238418579,-9830.400390625,-9830.400390625,-14.399999618530273,9830.099609375,-9830.400390625,-4442.10009765625,0.0
2.8742956588687236,7775.10009765625,7934.10009765625,9830.099609375,9408.599609375,9830.099609375,9830.099609375,9830.099609375,9830.099609375,-30084.599609375,9830.099609375,9807.900390625,9830.099609375,-5649.89990234375,-4843.7998046875,-1549.800048828125,-1669.199951171875,-8.399999618530273,0.0,8393.099609375,9376.2001953125,-14.100000381469727,9830.099609375,-2282.10009765625,-5510.7001953125,0.0
2.874553576440962,-2343.0,-641.7000122070312,-1297.199951171875,1173.300048828125,-1384.5,-3365.699951171875,-3581.699951171875,-3753.0,32233.5,2631.89990234375,-6429.0,-3916.199951171875,1696.199951171875,-2048.10009765625,-5520.60009765625,-3081.300048828125,-9.0,1.7999999523162842,-6841.7998046875,-126.9000015258789,-14.100000381469727,-4110.89990234375,2952.300048828125,9773.099609375,0.0
2.8748121355992016,-8888.7001953125,-9830.400390625,-9830.400390625,-9830.400390625,-9830.400390625,-8464.2001953125,-7828.5,-7772.39990234375,-26601.900390625,-9830.400390625,13.199999809265137,-1274.699951171875,-4450.7998046875,-611.4000244140625,-2154.60009765625,-3782.10009765625,-8.399999618530273,0.8999999761581421,12.600000381469727,-721.7999877929688,-14.100000381469727,-9830.400390625,-3314.699951171875,-8516.099609375,0.0
2.8750742234804436,9830.099609375,9830.099609375,9830.099609375,9830.099609375,9830.099609375,9830.099609375,9830.099609375,9830.099609375,7484.10009765625,-4213.2001953125,9830.099609375,9617.400390625,9830.099609375,9830.099609375,9830.099609375,9830.099609375,-9.0,0.8999999761581421,9830.099609375,9146.099609375,-14.100000381469727,-1038.9000244140625,9830.099609375,9830.099609375,0.0
2.875333103431683,-8334.900390625,-7600.2001953125,-7442.7001953125,-7182.60009765625,-8408.099609375,-8775.599609375,-8709.0,-8945.7001953125,1037.4000244140625,9605.7001953125,-9830.400390625,-9830.400390625,-8554.2001953125,-8742.2998046875,-8832.2998046875,-8770.2001953125,-8.699999809265137,0.6000000238418579,-9788.400390625,-9830.400390625,-14.100000381469727,9830.099609375,-9371.099609375,-8337.599609375,0.0
2.8755897378319206,915.0,1302.9000244140625,2639.39990234375,1704.0,1931.4000244140625,1923.300048828125,1186.800048828125,1862.0999755859375,-10596.2998046875,9830.099609375,578.0999755859375,2295.0,-1737.5999755859375,-2457.0,-1964.0999755859375,-1786.199951171875,-8.399999618530273,0.6000000238418579,-750.0,1531.800048828125,-14.100000381469727,9830.099609375,-1241.699951171875,-855.5999755859375,0.0
2.875846372232158,6193.2001953125,6153.89990234375,5707.2001953125,6351.2998046875,6161.10009765625,5994.2998046875,6135.2998046875,6158.10009765625,24527.099609375,1634.699951171875,7329.0,8154.60009765625,6983.10009765625,7133.39990234375,6698.7001953125,7066.7998046875,-9.0,0.8999999761581421,7161.89990234375,9627.0,-14.100000381469727,-3869.10009765625,7629.89990234375,7621.5,0.0
2.8761030066323956,-9830.400390625,-9830.400390625,-9830.400390625,-9830.400390625,-9830.400390625,-9830.400390625,-9830.400390625,-9830.400390625,-32604.0,-9830.400390625,-9635.099609375,-9830.400390625,-9332.099609375,-8613.599609375,-9106.5,-9484.7998046875,-8.100000381469727,0.6000000238418579,-9383.099609375,-9830.400390625,-14.100000381469727,-9830.400390625,-9297.599609375,-9830.400390625,0.0
2.8763602826186334,9830.099609375,9830.099609375,9830.099609375,9830.099609375,9830.099609375,9830.099609375,9830.099609375,9830.099609375,26527.80078125,-7923.89990234375,9830.099609375,9830.099609375,9830.099609375,9830.099609375,9830.099609375,9830.099609375,-8.399999618530273,1.2000000476837158,9830.099609375,9830.099609375,-14.399999618530273,-3576.60009765625,9830.099609375,9830.099609375,0.0
2.87662654080888,-5601.2998046875,-5475.0,-4818.60009765625,-5455.5,-5451.89990234375,-5139.89990234375,-5362.5,-4518.2998046875,-27639.30078125,8018.10009765625,-5433.89990234375,-6798.89990234375,-7047.89990234375,-6687.60009765625,-6065.10009765625,-6199.5,-8.699999809265137,1.2000000476837158,-5207.10009765625,-8119.5,-13.5,9830.099609375,-7205.7001953125,-7856.7001953125,0.0
2.9024089950357284,-2304.89990234375,-994.2000122070312,-323.1000061035156,-108.0,-1427.699951171875,-2587.199951171875,-3009.60009765625,-3606.89990234375,22378.19921875,9830.099609375,-7590.2998046875,-5049.0,-3359.10009765625,-5390.7001953125,-5983.2001953125,-5157.2998046875,-8.399999618530273,0.6000000238418579,-7947.0,-3966.60009765625,-14.399999618530273,9155.400390625,-3763.800048828125,-625.5,0.0
2.902687443359986,9006.0,8175.60009765625,8009.10009765625,7938.89990234375,8970.900390625,9582.900390625,9609.0,9830.099609375,-6150.2998046875,1791.0,9830.099609375,9830.099609375,8976.0,9830.099609375,9830.099609375,9830.099609375,-8.699999809265137,1.7999999523162842,9830.099609375,9830.099609375,-13.800000190734863,-6636.0,9830.099609375,8079.89990234375,0.0
2.902952097585231,-9830.400390625,-9830.400390625,-9830.400390625,-9830.400390625,-9830.400390625,-9830.400390625,-9830.400390625,-9830.400390625,-9262.5,-9830.400390625,-6903.2998046875,-6914.39990234375,-7198.2001953125,-4724.10009765625,-7141.2001953125,-7755.2998046875,-8.699999809265137,0.30000001192092896,-7103.7001953125,-5593.5,-13.800000190734863,-9830.400390625,-7004.10009765625,-7865.10009765625,0.0
2.9032132230874725,8058.89990234375,7942.7998046875,5775.60009765625,7200.60009765625,6126.60009765625,5677.7998046875,7148.7001953125,4403.39990234375,14968.2001953125,-8705.099609375,2715.300048828125,-688.5,9830.099609375,9830.099609375,9830.099609375,9830.099609375,-8.399999618530273,0.6000000238418579,5233.7998046875,-3051.60009765625,-14.100000381469727,-5391.0,9830.099609375,9830.099609375,0.0
2.9034759525547154,4615.5,5680.7998046875,9478.2001953125,6151.7998046875,6938.7001953125,7326.2998046875,5520.2998046875,7793.10009765625,-28973.099609375,5647.2001953125,5109.2998046875,5386.2001953125,-6132.2998046875,-4180.7998046875,-1497.9000244140625,-2326.5,-9.0,0.6000000238418579,3895.199951171875,1717.800048828125,-14.100000381469727,9830.099609375,-5772.60009765625,-9830.400390625,0.0
2.9037367572639567,-9602.7001953125,-4884.60009765625,-2960.699951171875,-841.5,-7678.5,-9830.400390625,-9830.400390625,-9830.400390625,36457.19921875,9830.099609375,-9830.400390625,-9830.400390625,-9830.400390625,-9830.400390625,-9830.400390625,-9830.400390625,-8.100000381469727,1.2000000476837158,-9830.400390625,-9830.400390625,-14.100000381469727,8319.0,-9830.400390625,-2503.199951171875,0.0
2.903996599594197,-1382.4000244140625,-3222.300048828125,-2270.10009765625,-3380.39990234375,-201.89999389648438,788.0999755859375,202.8000030517578,1878.9000244140625,-29491.80078125,-3454.199951171875,5027.10009765625,7423.7998046875,-2689.199951171875,-1055.699951171875,-632.0999755859375,-1022.7000122070312,-8.399999618530273,0.6000000238418579,3602.39990234375,8197.2001953125,-14.399999618530273,-7923.60009765625,54.900001525878906,-2434.800048828125,0.0
2.904267990472448,9761.400390625,9462.2998046875,7382.10009765625,8826.900390625,8516.7001953125,8186.7001953125,9174.900390625,7758.89990234375,19636.5,-9830.400390625,8100.2998046875,6582.2998046875,9830.099609375,9830.099609375,9830.099609375,9830.099609375,-9.0,1.7999999523162842,9446.099609375,7332.60009765625,-13.800000190734863,-9830.400390625,9830.099609375,9830.099609375,0.0
2.9046016151927567,-9830.400390625,-9830.400390625,-9830.400390625,-9830.400390625,-9830.400390625,-9830.400390625,-9830.400390625,-9830.400390625,-15412.7998046875,-8953.5,-9830.400390625,-9830.400390625,-9830.400390625,-9830.400390625,-9830.400390625,-9830.400390625,-8.100000381469727,1.5,-9830.400390625,-9830.400390625,-13.800000190734863,-5644.7998046875,-9830.400390625,-9830.400390625,0.0
2.9673994113448448,8683.2001953125,8621.400390625,9251.7001953125,8395.5,8762.099609375,9270.2998046875,9138.0,9426.599609375,-2297.10009765625,6552.2998046875,9830.099609375,9258.599609375,5851.5,6419.7001953125,8033.7001953125,7303.7998046875,-8.399999618530273,0.8999999761581421,9830.099609375,6707.39990234375,-14.699999809265137,9830.099609375,5665.7998046875,4440.60009765625,0.0
2.9681831086445696,-1199.699951171875,-246.60000610351562,231.0,471.0,-526.7999877929688,-1205.0999755859375,-1674.0,-1347.5999755859375,16894.80078125,9830.099609375,-6819.60009765625,-5270.10009765625,-2513.699951171875,-4269.2998046875,-4476.0,-3513.60009765625,-8.699999809265137,0.8999999761581421,-6645.0,-4659.2998046875,-14.100000381469727,9188.400390625,-2882.39990234375,-266.3999938964844,0.0
2.969038663576361,-6952.7998046875,-7302.89990234375,-7573.2001953125,-7407.2998046875,-6943.2001953125,-6837.89990234375,-6704.10009765625,-6951.60009765625,-22748.69921875,-2805.0,-2924.10009765625,-2059.800048828125,-6267.89990234375,-5585.39990234375,-5639.7001953125,-6004.2001953125,-8.399999618530273,0.6000000238418579,-3710.39990234375,-1377.9000244140625,-13.800000190734863,-6733.7998046875,-5439.2998046875,-6263.10009765625,0.0
2.969831022287094,9830.099609375,9830.099609375,9830.099609375,9830.099609375,9830.099609375,9830.099609375,9830.099609375,9830.099609375,26231.400390625,-9830.400390625,9830.099609375,9830.099609375,9830.099609375,9830.099609375,9830.099609375,9830.099609375,-8.399999618530273,0.8999999761581421,9830.099609375,9830.099609375,-13.800000190734863,-9830.400390625,9830.099609375,9830.099609375,0.0
2.9706820861168812,-9830.400390625,-9830.400390625,-9830.400390625,-9830.400390625,-9830.400390625,-9830.400390625,-9830.400390625,-9830.400390625,-34827.0,-9597.900390625,-8716.2001953125,-9623.7001953125,-9830.400390625,-9205.7998046875,-9138.2998046875,-9428.7001953125,-8.699999809265137,0.8999999761581421,-8478.2998046875,-9493.2001953125,-13.800000190734863,-4865.7001953125,-9830.400390625,-9830.400390625,0.0
2.971690980102814,6230.7001953125,6822.60009765625,7033.2001953125,6886.5,6282.60009765625,5924.39990234375,5921.10009765625,5276.7001953125,26972.400390625,5976.60009765625,116.4000015258789,-338.1000061035156,5139.89990234375,3718.5,4034.39990234375,4229.7001953125,-8.399999618530273,0.0,1036.5,-1642.800048828125,-14.100000381469727,9830.099609375,3817.199951171875,5589.60009765625,0.0
2.9724262376594943,1704.0,1949.0999755859375,2970.89990234375,2339.699951171875,2580.300048828125,2787.89990234375,2064.60009765625,3621.300048828125,-15931.5,9830.099609375,3873.89990234375,5928.0,-1320.9000244140625,-1394.4000244140625,-572.7000122070312,-222.60000610351562,-9.0,1.5,2439.60009765625,6074.10009765625,-14.100000381469727,9617.7001953125,-414.0,-897.0,0.0
2.9731637407671765,-9423.900390625,-9359.099609375,-9830.400390625,-9163.5,-9677.099609375,-9830.400390625,-9765.599609375,-9830.400390625,8151.0,1564.800048828125,-9830.400390625,-9830.400390625,-6942.89990234375,-7518.60009765625,-8448.2998046875,-8260.7998046875,-8.699999809265137,0.8999999761581421,-9830.400390625,-8252.400390625,-13.800000190734863,-3938.39990234375,-7018.2001953125,-5237.39990234375,0.0
2.9739060557698633,9830.099609375,9830.099609375,9830.099609375,9830.099609375,9830.099609375,9830.099609375,9830.099609375,9830.099609375,3038.10009765625,-9830.400390625,9830.099609375,9830.099609375,9830.099609375,9830.099609375,9830.099609375,9830.099609375,-8.399999618530273,0.30000001192092896,9830.099609375,9830.099609375,-14.100000381469727,-9830.400390625,9830.099609375,9830.099609375,0.0
3.0139875371919387,-5907.0,-8155.7998046875,-9034.2001953125,-9830.400390625,-7406.7001953125,-5171.7001953125,-4437.89990234375,-3775.199951171875,-23712.0,-8005.7998046875,1103.0999755859375,-2054.10009765625,-4382.39990234375,-1170.0,-134.39999389648438,-1500.9000244140625,-8.699999809265137,0.6000000238418579,1815.5999755859375,-3669.60009765625,-13.800000190734863,850.5,-4289.39990234375,-9675.2998046875,0.0
3.0148110128237002,-4849.7998046875,-66.5999984741211,1691.0999755859375,2355.300048828125,-3052.199951171875,-5579.39990234375,-6757.7998046875,-6886.5,29047.19921875,7473.0,-9830.400390625,-9830.400390625,-9830.400390625,-9830.400390625,-9830.400390625,-9830.400390625,-8.699999809265137,0.0,-9830.400390625,-9830.400390625,-14.100000381469727,9830.099609375,-9830.400390625,-4137.2998046875,0.0
3.0156534152424794,7728.89990234375,7946.39990234375,9830.099609375,9307.2001953125,9830.099609375,9830.099609375,9830.099609375,9830.099609375,-29788.19921875,9830.099609375,9801.900390625,9830.099609375,-5516.7001953125,-4967.39990234375,-1582.5,-1596.9000244140625,-8.100000381469727,1.2000000476837158,8449.5,9447.0,-14.100000381469727,9830.099609375,-2161.5,-5325.60009765625,0.0
3.0164698334282347,-2502.89990234375,-851.7000122070312,-1602.5999755859375,571.5,-1817.0999755859375,-3570.60009765625,-3795.300048828125,-3920.10009765625,32085.30078125,2265.60009765625,-6284.10009765625,-3947.10009765625,1958.4000244140625,-1771.800048828125,-5457.2998046875,-2977.5,-8.699999809265137,0.8999999761581421,-6550.5,-53.70000076293945,-14.100000381469727,-4333.2001953125,3181.800048828125,9830.099609375,0.0
3.0172628337249683,-8846.099609375,-9830.400390625,-9830.400390625,-9830.400390625,-9830.400390625,-8419.2001953125,-7770.60009765625,-7724.39990234375,-26157.30078125,-9830.400390625,17.100000381469727,-1408.199951171875,-4008.300048828125,-275.1000061035156,-1986.0,-3567.0,-8.100000381469727,0.6000000238418579,123.0,-885.0,-13.800000190734863,-9830.400390625,-2954.699951171875,-8356.7998046875,0.0
3.018255688060887,9830.099609375,9830.099609375,9830.099609375,9830.099609375,9830.099609375,9830.099609375,9830.099609375,9830.099609375,6372.60009765625,-4124.10009765625,9830.099609375,9581.7001953125,9830.099609375,9830.099609375,9830.099609375,9830.099609375,-9.0,1.2000000476837158,9830.099609375,9078.599609375,-14.100000381469727,-813.5999755859375,9830.099609375,9830.099609375,0.0
3.0191311321586967,-8229.0,-7473.60009765625,-7305.0,-7082.39990234375,-8325.599609375,-8690.7001953125,-8614.7998046875,-8865.0,1778.4000244140625,9638.7001953125,-9830.400390625,-9830.400390625,-8454.0,-8718.2998046875,-8773.7998046875,-8710.7998046875,-8.399999618530273,0.6000000238418579,-9766.2001953125,-9830.400390625,-14.100000381469727,9830.099609375,-9289.5,-8179.7998046875,0.0
3.01998893264149,776.7000122070312,1164.9000244140625,2458.199951171875,1495.199951171875,1723.5,1825.800048828125,1061.4000244140625,1765.199951171875,-11485.5,9830.099609375,620.0999755859375,2332.800048828125,-1850.4000244140625,-2528.699951171875,-2066.10009765625,-1888.5,-8.699999809265137,0.30000001192092896,-672.9000244140625,1593.5999755859375,-14.399999618530273,9830.099609375,-1348.5,-1012.2000122070312,0.0
3.0210112999334355,6319.2001953125,6277.7998046875,5794.7998046875,6425.7001953125,6223.2001953125,6117.0,6269.39990234375,6253.7998046875,25119.900390625,1419.9000244140625,7485.60009765625,8210.7001953125,7195.5,7319.10009765625,6915.89990234375,7289.7001953125,-8.399999618530273,0.6000000238418579,7399.5,9622.2001953125,-14.100000381469727,-4145.7001953125,7820.7001953125,7817.10009765625,0.0
3.021811999262176,-9830.400390625,-9830.400390625,-9830.400390625,-9830.400390625,-9830.400390625,-9830.400390625,-9830.400390625,-9830.400390625,-32752.19921875,-9830.400390625,-9668.400390625,-9830.400390625,-9341.7001953125,-8614.2001953125,-9122.099609375,-9480.2998046875,-8.699999809265137,0.0,-9389.400390625,-9830.400390625,-14.100000381469727,-9830.400390625,-9323.7001953125,-9830.400390625,0.0
3.0225613717108692,9830.099609375,9830.099609375,9830.099609375,9830.099609375,9830.099609375,9830.099609375,9830.099609375,9830.099609375,26527.80078125,-7780.7998046875,9830.099609375,9830.099609375,9830.099609375,9830.099609375,9830.099609375,9830.099609375,-8.399999618530273,0.6000000238418579,9830.099609375,9830.099609375,-14.399999618530273,-3470.39990234375,9830.099609375,9830.099609375,0.0
3.023284118340538,-5503.2001953125,-5355.60009765625,-4698.2998046875,-5271.2998046875,-5327.7001953125,-5021.10009765625,-5309.39990234375,-4450.7998046875,-26972.400390625,8078.7001953125,-5467.5,-6776.7001953125,-6971.39990234375,-6631.7998046875,-6031.5,-6138.89990234375,-8.699999809265137,0.0,-5241.0,-8104.7998046875,-14.100000381469727,9830.099609375,-7124.10009765625,-7726.2001953125,0.0
3.0240357363402333,-2430.60009765625,-1157.699951171875,-543.2999877929688,-291.0,-1573.800048828125,-2706.0,-3075.300048828125,-3681.0,21563.099609375,9830.099609375,-7571.10009765625,-5045.7001953125,-3457.5,-5457.60009765625,-6013.5,-5211.60009765625,-8.100000381469727,0.0,-7935.60009765625,-3911.39990234375,-13.800000190734863,8872.7998046875,-3823.199951171875,-775.5,0.0
3.024793128613934,9065.7001953125,8300.099609375,8098.7998046875,8091.60009765625,9071.7001953125,9666.0,9685.2001953125,9830.099609375,-5631.60009765625,1276.199951171875,9830.099609375,9830.099609375,9123.0,9830.099609375,9830.099609375,9830.099609375,-8.699999809265137,1.5,9830.099609375,9830.099609375,-14.100000381469727,-7009.2001953125,9830.099609375,8251.5,0.0
3.0255408970976254,-9830.400390625,-9830.400390625,-9830.400390625,-9830.400390625,-9830.400390625,-9830.400390625,-9830.400390625,-9830.400390625,-10225.7998046875,-9830.400390625,-6925.7998046875,-6969.2998046875,-7344.60009765625,-4914.2998046875,-7192.5,-7835.39990234375,-8.399999618530273,0.8999999761581421,-7115.10009765625,-5589.89990234375,-13.5,-9830.400390625,-7164.0,-8100.2998046875,0.0
3.0263085547473354,8151.60009765625,8085.60009765625,5963.10009765625,7439.7001953125,6342.89990234375,5803.2001953125,7259.10009765625,4547.39990234375,15709.2001953125,-8575.2001953125,2652.300048828125,-746.7000122070312,9830.099609375,9830.099609375,9830.099609375,9830.099609375,-8.399999618530273,0.8999999761581421,5191.7998046875,-3086.39990234375,-14.100000381469727,-5204.39990234375,9830.099609375,9830.099609375,0.0
3.0294940292402823,4370.10009765625,5349.2998046875,9194.7001953125,5991.0,6722.7001953125,7202.39990234375,5316.2998046875,7658.39990234375,-29269.5,5926.5,5102.39990234375,5401.7998046875,-6177.89990234375,-4368.0,-1644.300048828125,-2485.5,-9.0,1.2000000476837158,3830.10009765625,1790.4000244140625,-13.800000190734863,9830.099609375,-5757.2998046875,-9830.400390625,0.0
3.0302748394030043,-9770.400390625,-4990.2001953125,-3075.60009765625,-761.4000244140625,-7613.39990234375,-9830.400390625,-9830.400390625,-9830.400390625,36531.30078125,9830.099609375,-9830.400390625,-9830.400390625,-9830.400390625,-9830.400390625,-9830.400390625,-9830.400390625,-8.399999618530273,0.0,-9830.400390625,-9830.400390625,-14.100000381469727,8071.2001953125,-9830.400390625,-2287.800048828125,0.0
3.031035439606708,-1169.4000244140625,-3061.5,-2210.10009765625,-3188.699951171875,56.400001525878906,1026.9000244140625,393.29998779296875,2011.199951171875,-29491.80078125,-3861.60009765625,5080.5,7500.60009765625,-2484.0,-901.7999877929688,-510.6000061035156,-819.0,-8.699999809265137,1.2000000476837158,3672.0,8333.099609375,-14.399999618530273,-8109.60009765625,401.1000061035156,-1987.800048828125,0.0
3.0317960398104113,9804.599609375,9482.400390625,7320.2998046875,8821.5,8520.900390625,8177.10009765625,9187.2001953125,7778.7001953125,18969.599609375,-9830.400390625,8109.0,6541.7998046875,9830.099609375,9830.099609375,9830.099609375,9830.099609375,-9.300000190734863,1.2000000476837158,9462.599609375,7283.7001953125,-13.5,-9830.400390625,9830.099609375,9830.099609375,0.0
3.032593531209149,-9830.400390625,-9830.400390625,-9830.400390625,-9830.400390625,-9830.400390625,-9830.400390625,-9830.400390625,-9830.400390625,-14301.2998046875,-8838.900390625,-9830.400390625,-9830.400390625,-9830.400390625,-9830.400390625,-9830.400390625,-9830.400390625,-8.399999618530273,0.30000001192092896,-9830.400390625,-9830.400390625,-14.399999618530273,-5433.2998046875,-9830.400390625,-9830.400390625,0.0
3.033430480146923,8597.7001953125,8553.2998046875,9189.2998046875,8355.599609375,8722.5,9241.5,9071.099609375,9368.400390625,-2889.89990234375,6804.89990234375,9830.099609375,9229.2001953125,5640.89990234375,6175.5,7824.89990234375,7133.7001953125,-8.399999618530273,0.6000000238418579,9830.099609375,6712.7998046875,-14.399999618530273,9830.099609375,5476.7998046875,4251.60009765625,0.0
3.0343290213407546,-1060.199951171875,-126.0,331.79998779296875,601.2000122070312,-392.70001220703125,-1102.5,-1569.9000244140625,-1279.800048828125,18228.599609375,9830.099609375,-6768.60009765625,-5159.7001953125,-2355.300048828125,-4158.2998046875,-4389.89990234375,-3338.699951171875,-8.399999618530273,0.6000000238418579,-6595.7998046875,-4434.60009765625,-13.800000190734863,9045.2998046875,-2705.699951171875,-25.5,0.0
3.0351037364364712,-7049.39990234375,-7444.2001953125,-7712.39990234375,-7509.0,-6977.10009765625,-6912.2998046875,-6762.0,-7024.5,-22971.0,-2927.699951171875,-2950.800048828125,-2083.199951171875,-6380.10009765625,-5633.39990234375,-5681.10009765625,-6040.7998046875,-8.100000381469727,-0.30000001192092896,-3756.60009765625,-1419.5999755859375,-14.100000381469727,-6822.60009765625,-5494.5,-6366.89990234375,0.0
3.0358749228091844,9830.099609375,9830.099609375,9830.099609375,9830.099609375,9830.099609375,9830.099609375,9830.099609375,9830.099609375,26601.900390625,-9830.400390625,9830.099609375,9830.099609375,9830.099609375,9830.099609375,9830.099609375,9830.099609375,-8.699999809265137,1.7999999523162842,9830.099609375,9830.099609375,-14.100000381469727,-9830.400390625,9830.099609375,9830.099609375,0.0
3.0366156338468695,-9830.400390625,-9830.400390625,-9830.400390625,-9830.400390625,-9830.400390625,-9830.400390625,-9830.400390625,-9830.400390625,-34752.8984375,-9472.5,-8717.7001953125,-9621.0,-9830.400390625,-9200.7001953125,-9132.900390625,-9415.5,-8.699999809265137,1.5,-8482.7998046875,-9496.7998046875,-13.800000190734863,-4446.0,-9830.400390625,-9830.400390625,0.0
3.037392915286589,6103.5,6681.89990234375,6942.2998046875,6766.7998046875,6165.89990234375,5809.7998046875,5768.10009765625,5212.2001953125,26527.80078125,6198.0,44.70000076293945,-302.70001220703125,4901.10009765625,3493.5,3825.0,4004.39990234375,-8.399999618530273,2.0999999046325684,851.7000122070312,-1566.0,-14.100000381469727,9830.099609375,3653.699951171875,5430.0,0.0
3.0588058480563958,1814.4000244140625,2047.199951171875,3052.5,2479.800048828125,2706.60009765625,2887.800048828125,2179.800048828125,3710.39990234375,-14968.2001953125,9830.099609375,3955.199951171875,6062.10009765625,-1107.300048828125,-1203.0,-423.8999938964844,-39.900001525878906,-9.0,0.8999999761581421,2439.60009765625,6330.60009765625,-13.800000190734863,9489.2998046875,-205.1999969482422,-657.2999877929688,0.0
3.059559070021092,-9464.400390625,-9428.7001953125,-9830.400390625,-9233.099609375,-9690.900390625,-9830.400390625,-9795.0,-9830.400390625,7410.0,1430.4000244140625,-9830.400390625,-9830.400390625,-7018.5,-7584.60009765625,-8481.900390625,-8283.599609375,-8.399999618530273,0.6000000238418579,-9830.400390625,-8186.39990234375,-14.100000381469727,-4192.2001953125,-7058.7001953125,-5365.2001953125,0.0
3.060303309781781,9830.099609375,9830.099609375,9830.099609375,9830.099609375,9830.099609375,9830.099609375,9830.099609375,9830.099609375,4001.39990234375,-9830.400390625,9830.099609375,9830.099609375,9830.099609375,9830.099609375,9830.099609375,9830.099609375,-8.399999618530273,0.30000001192092896,9830.099609375,9830.099609375,-14.100000381469727,-9830.400390625,9830.099609375,9830.099609375,0.0
3.0610783456704977,-5997.89990234375,-8272.7998046875,-8967.900390625,-9830.400390625,-7399.2001953125,-5202.0,-4549.7998046875,-3819.89990234375,-24304.80078125,-7479.89990234375,991.7999877929688,-2154.300048828125,-4655.10009765625,-1482.0,-411.29998779296875,-1740.5999755859375,-9.0,1.2000000476837158,1624.800048828125,-3766.800048828125,-13.5,1192.199951171875,-4485.89990234375,-9830.400390625,0.0
3.061924918398281,-4677.0,39.29999923706055,1747.5,2545.5,-2974.5,-5398.2001953125,-6563.39990234375,-6724.5,29640.0,7950.0,-9830.400390625,-9830.400390625,-9624.2998046875,-9830.400390625,-9830.400390625,-9830.400390625,-8.100000381469727,1.2000000476837158,-9830.400390625,-9830.400390625,-14.100000381469727,9830.099609375,-9830.400390625,-3892.5,0.0
3.062774699056067,7497.0,7705.2001953125,9830.099609375,9115.5,9830.099609375,9830.099609375,9830.099609375,9830.099609375,-30084.599609375,9830.099609375,9825.599609375,9830.099609375,-5727.60009765625,-5254.5,-1775.4000244140625,-1655.699951171875,-8.699999809265137,1.5,8420.400390625,9473.7001953125,-14.100000381469727,9830.099609375,-2250.89990234375,-5334.2998046875,0.0
3.06365399266988,-2791.199951171875,-1172.699951171875,-1884.9000244140625,444.29998779296875,-1765.199951171875,-3720.89990234375,-4002.60009765625,-4021.800048828125,31492.5,1819.800048828125,-6328.7998046875,-3826.5,1951.800048828125,-1632.5999755859375,-5444.10009765625,-2924.699951171875,-8.699999809265137,0.8999999761581421,-6721.7998046875,222.3000030517578,-13.800000190734863,-4609.7998046875,3325.800048828125,9830.099609375,0.0
3.0646753975828247,-8791.5,-9830.400390625,-9830.400390625,-9830.400390625,-9773.099609375,-8383.5,-7749.89990234375,-7700.7001953125,-25490.400390625,-9830.400390625,40.5,-1352.4000244140625,-3619.800048828125,161.10000610351562,-1822.800048828125,-3233.10009765625,-8.100000381469727,0.6000000238418579,76.5,-788.7000122070312,-13.800000190734863,-9830.400390625,-2541.300048828125,-8214.599609375,0.0
3.065482833564572,9830.099609375,9830.099609375,9830.099609375,9830.099609375,9830.099609375,9830.099609375,9830.099609375,9830.099609375,5853.89990234375,-4120.5,9830.099609375,9605.7001953125,9830.099609375,9830.099609375,9830.099609375,9830.099609375,-9.0,1.7999999523162842,9830.099609375,9105.900390625,-14.100000381469727,-676.5,9830.099609375,9830.099609375,0.0
3.0922068152472915,-8136.60009765625,-7351.2001953125,-7124.39990234375,-6865.5,-8147.10009765625,-8574.2998046875,-8541.599609375,-8823.599609375,3186.300048828125,9664.2001953125,-9830.400390625,-9830.400390625,-8353.2001953125,-8661.900390625,-8763.2998046875,-8670.599609375,-8.399999618530273,0.0,-9809.7001953125,-9830.400390625,-13.800000190734863,9830.099609375,-9210.0,-8043.89990234375,0.0
3.093030290879053,615.5999755859375,1009.5,2307.300048828125,1360.5,1656.9000244140625,1678.5,909.0,1662.5999755859375,-12152.400390625,9830.099609375,563.7000122070312,2375.39990234375,-2033.0999755859375,-2665.5,-2185.5,-2015.0999755859375,-8.699999809265137,0.6000000238418579,-772.5,1670.4000244140625,-14.100000381469727,9830.099609375,-1464.9000244140625,-1154.0999755859375,0.0
3.0939525707549063,6463.5,6401.10009765625,5914.2001953125,6579.0,6412.2001953125,6250.7998046875,6378.89990234375,6341.7001953125,25786.80078125,1212.300048828125,7575.89990234375,8279.7001953125,7366.2001953125,7499.10009765625,7086.2998046875,7444.7998046875,-8.399999618530273,0.30000001192092896,7452.60009765625,9743.099609375,-13.5,-4459.2001953125,7974.0,7971.2998046875,0.0
3.0947580819786515,-9830.400390625,-9830.400390625,-9830.400390625,-9830.400390625,-9830.400390625,-9830.400390625,-9830.400390625,-9830.400390625,-32974.5,-9830.400390625,-9660.0,-9830.400390625,-9383.099609375,-8636.099609375,-9153.599609375,-9509.7001953125,-8.699999809265137,0.8999999761581421,-9405.900390625,-9830.400390625,-14.100000381469727,-9830.400390625,-9365.099609375,-9830.400390625,0.0
3.0956088250154385,9830.099609375,9830.099609375,9830.099609375,9830.099609375,9830.099609375,9830.099609375,9830.099609375,9830.099609375,26601.900390625,-7592.10009765625,9830.099609375,9830.099609375,9830.099609375,9830.099609375,9830.099609375,9830.099609375,-8.399999618530273,0.8999999761581421,9830.099609375,9830.099609375,-13.800000190734863,-3269.10009765625,9830.099609375,9830.099609375,0.0
3.0964079203791774,-5383.7998046875,-5223.89990234375,-4540.7998046875,-5139.60009765625,-5232.2998046875,-4911.0,-5181.2998046875,-4345.5,-26305.5,8192.7001953125,-5485.2001953125,-6746.7001953125,-6878.39990234375,-6574.7998046875,-5981.7001953125,-6074.10009765625,-9.0,1.5,-5261.7001953125,-8014.5,-13.800000190734863,9830.099609375,-7055.10009765625,-7590.2998046875,0.0
3.097169482961882,-2548.800048828125,-1314.0,-709.7999877929688,-481.79998779296875,-1701.300048828125,-2808.0,-3227.699951171875,-3807.0,20896.19921875,9830.099609375,-7498.2001953125,-4975.2001953125,-3532.199951171875,-5503.7998046875,-6026.10009765625,-5283.0,-8.100000381469727,0.8999999761581421,-7850.7001953125,-3876.0,-14.100000381469727,8629.5,-3879.300048828125,-926.7000122070312,0.0
3.0980914420447347,9160.5,8402.099609375,8201.099609375,8160.2998046875,9140.7001953125,9700.2001953125,9736.2001953125,9830.099609375,-4964.7001953125,844.2000122070312,9830.099609375,9830.099609375,9262.5,9830.099609375,9830.099609375,9830.099609375,-8.399999618530273,1.2000000476837158,9830.099609375,9830.099609375,-13.800000190734863,-7286.39990234375,9830.099609375,8418.0,0.0
3.098922937501504,-9830.400390625,-9830.400390625,-9830.400390625,-9830.400390625,-9830.400390625,-9830.400390625,-9830.400390625,-9830.400390625,-11337.2998046875,-9830.400390625,-6924.0,-7014.0,-7455.2998046875,-5231.10009765625,-7275.2998046875,-7951.2001953125,-8.699999809265137,0.8999999761581421,-7102.7998046875,-5744.39990234375,-13.5,-9830.400390625,-7361.10009765625,-8315.7001953125,0.0
3.1217929120786585,8200.2001953125,8166.0,6123.2998046875,7537.5,6408.60009765625,5887.5,7318.2001953125,4646.7001953125,16302.0,-8466.599609375,2664.89990234375,-787.2000122070312,9830.099609375,9830.099609375,9830.099609375,9830.099609375,-8.699999809265137,0.8999999761581421,5229.2998046875,-3195.0,-14.100000381469727,-5002.5,9830.099609375,9830.099609375,0.0
3.122899327136682,4144.2001953125,5215.2001953125,8932.2001953125,5690.39990234375,6425.39990234375,6895.7998046875,5037.89990234375,7475.39990234375,-29565.900390625,6158.39990234375,5089.5,5400.0,-6136.7998046875,-4451.39990234375,-1779.0,-2614.5,-9.0,0.8999999761581421,3776.699951171875,1677.0,-14.100000381469727,9830.099609375,-5756.39990234375,-9830.400390625,0.0
3.1238565734495674,-9830.400390625,-4866.0,-3140.39990234375,-829.7999877929688,-7706.7001953125,-9830.400390625,-9830.400390625,-9830.400390625,36679.5,9830.099609375,-9830.400390625,-9830.400390625,-9830.400390625,-9830.400390625,-9830.400390625,-9830.400390625,-8.699999809265137,0.6000000238418579,-9830.400390625,-9830.400390625,-14.100000381469727,7874.7001953125,-9830.400390625,-2107.5,0.0
3.1250964383957145,-963.2999877929688,-2738.10009765625,-2136.0,-3040.5,298.20001220703125,1198.199951171875,573.9000244140625,2109.60009765625,-29047.19921875,-4227.2998046875,5183.39990234375,7588.5,-2179.199951171875,-631.2000122070312,-258.0,-586.2000122070312,-8.399999618530273,0.6000000238418579,3785.39990234375,8405.099609375,-14.100000381469727,-8226.599609375,729.0,-1519.5,0.0
3.1260655540496107,9781.2001953125,9430.7998046875,7178.39990234375,8693.099609375,8409.2998046875,8138.39990234375,9151.5,7741.5,18302.69921875,-9830.400390625,8062.7998046875,6450.2998046875,9830.099609375,9830.099609375,9830.099609375,9830.099609375,-9.300000190734863,0.6000000238418579,9450.900390625,7114.7998046875,-14.100000381469727,-9830.400390625,9830.099609375,9830.099609375,0.0
3.1267190093912154,-9830.400390625,-9830.400390625,-9830.400390625,-9830.400390625,-9830.400390625,-9830.400390625,-9830.400390625,-9830.400390625,-13634.400390625,-8704.2001953125,-9830.400390625,-9830.400390625,-9830.400390625,-9830.400390625,-9830.400390625,-9830.400390625,-8.399999618530273,0.6000000238418579,-9830.400390625,-9830.400390625,-13.5,-5194.5,-9830.400390625,-9830.400390625,0.0
3.127418338131862,8476.5,8444.7001953125,9130.7998046875,8214.2998046875,8608.7998046875,9160.5,8977.7998046875,9339.900390625,-3853.199951171875,7062.2998046875,9830.099609375,9207.2998046875,5390.10009765625,5892.2998046875,7642.7998046875,6893.10009765625,-8.399999618530273,1.2000000476837158,9830.099609375,6670.5,-14.399999618530273,9830.099609375,5265.89990234375,4021.5,0.0
3.128073076645468,-950.4000244140625,6.0,453.29998779296875,746.0999755859375,-269.1000061035156,-1002.0,-1447.199951171875,-1197.0,18673.19921875,9830.099609375,-6698.39990234375,-5058.60009765625,-2201.10009765625,-4024.5,-4314.60009765625,-3258.60009765625,-8.699999809265137,0.8999999761581421,-6553.5,-4305.89990234375,-13.5,8883.2998046875,-2563.199951171875,177.3000030517578,0.0
3.1287980688261383,-7168.5,-7579.7998046875,-7842.60009765625,-7681.5,-7183.5,-7023.0,-6880.7998046875,-7113.0,-23637.900390625,-3070.199951171875,-2903.10009765625,-2076.300048828125,-6441.2998046875,-5674.2001953125,-5702.39990234375,-6121.7998046875,-8.699999809265137,0.30000001192092896,-3681.300048828125,-1438.5,-13.800000190734863,-6941.10009765625,-5547.60009765625,-6468.60009765625,0.0
3.1521158704317074,9830.099609375,9830.099609375,9830.099609375,9830.099609375,9830.099609375,9830.099609375,9830.099609375,9830.099609375,26676.0,-9830.400390625,9830.099609375,9830.099609375,9830.099609375,9830.099609375,9830.099609375,9830.099609375,-8.699999809265137,0.8999999761581421,9830.099609375,9830.099609375,-13.800000190734863,-9830.400390625,9830.099609375,9830.099609375,0.0
3.152398489064969,-9830.400390625,-9830.400390625,-9830.400390625,-9830.400390625,-9830.400390625,-9830.400390625,-9830.400390625,-9830.400390625,-34382.3984375,-9353.400390625,-8680.2001953125,-9619.7998046875,-9830.400390625,-9137.7001953125,-9068.400390625,-9370.2001953125,-8.399999618530273,0.6000000238418579,-8444.7001953125,-9529.2001953125,-14.100000381469727,-4041.0,-9830.400390625,-9830.400390625,0.0
3.1526682759782183,5964.89990234375,6543.2998046875,6815.39990234375,6671.10009765625,6058.5,5705.39990234375,5630.7001953125,5103.89990234375,26083.19921875,6405.0,-65.0999984741211,-435.8999938964844,4725.89990234375,3291.89990234375,3619.800048828125,3799.199951171875,-8.699999809265137,0.8999999761581421,742.7999877929688,-1664.4000244140625,-14.399999618530273,9830.099609375,3510.300048828125,5257.7998046875,0.0
3.1529345341684647,1908.300048828125,2159.699951171875,3105.300048828125,2566.800048828125,2748.60009765625,2970.60009765625,2247.0,3727.800048828125,-14301.2998046875,9830.099609375,4071.0,6115.5,-909.5999755859375,-970.7999877929688,-210.89999389648438,120.30000305175781,-9.0,1.2000000476837158,2615.699951171875,6360.0,-13.800000190734863,9360.599609375,11.699999809265137,-429.6000061035156,0.0
3.1531985468077086,-9577.5,-9557.099609375,-9830.400390625,-9390.0,-9803.400390625,-9830.400390625,-9830.400390625,-9830.400390625,6224.39990234375,1287.300048828125,-9830.400390625,-9830.400390625,-7127.7001953125,-7650.60009765625,-8532.2998046875,-8370.0,-8.399999618530273,0.8999999761581421,-9830.400390625,-8232.0,-14.100000381469727,-4422.60009765625,-7146.60009765625,-5554.5,0.0
3.153462238653953,9830.099609375,9830.099609375,9830.099609375,9830.099609375,9830.099609375,9830.099609375,9830.099609375,9830.099609375,4668.2998046875,-9830.400390625,9830.099609375,9830.099609375,9830.099609375,9830.099609375,9830.099609375,9830.099609375,-8.699999809265137,2.0999999046325684,9830.099609375,9830.099609375,-14.399999618530273,-9830.400390625,9830.099609375,9830.099609375,0.0
3.1537275344651983,-6163.5,-8401.2001953125,-8953.5,-9830.400390625,-7503.89990234375,-5341.2001953125,-4741.2001953125,-3949.199951171875,-25119.900390625,-6874.7998046875,814.2000122070312,-2305.199951171875,-5007.89990234375,-1789.199951171875,-753.0,-2106.60009765625,-8.699999809265137,1.2000000476837158,1463.0999755859375,-3977.699951171875,-13.800000190734863,1617.0,-4744.5,-9830.400390625,0.0
3.15398898076044,-4443.89990234375,237.3000030517578,1770.9000244140625,2697.89990234375,-2770.199951171875,-5232.60009765625,-6348.0,-6603.60009765625,30010.5,8394.599609375,-9830.400390625,-9830.400390625,-9393.2998046875,-9830.400390625,-9830.400390625,-9830.400390625,-8.699999809265137,0.6000000238418579,-9830.400390625,-9830.400390625,-14.100000381469727,9830.099609375,-9830.400390625,-3724.800048828125,0.0
3.154297904419726,7473.0,7674.60009765625,9830.099609375,9125.400390625,9830.099609375,9830.099609375,9830.099609375,9830.099609375,-30084.599609375,9830.099609375,9830.099609375,9830.099609375,-5648.10009765625,-5223.60009765625,-1640.699951171875,-1723.5,-8.399999618530273,0.30000001192092896,8537.400390625,9513.2998046875,-14.399999618530273,9830.099609375,-2028.9000244140625,-5256.89990234375,0.0
3.1838432605400553,-3033.60009765625,-1524.5999755859375,-2193.60009765625,48.29999923706055,-2025.300048828125,-3931.5,-4242.89990234375,-4210.7998046875,31122.0,1378.5,-6251.39990234375,-3776.39990234375,2025.9000244140625,-1280.699951171875,-5381.10009765625,-2820.60009765625,-8.399999618530273,1.7999999523162842,-6668.10009765625,232.5,-13.800000190734863,-4885.2001953125,3470.699951171875,9807.599609375,0.0
3.1844155552525844,-8742.599609375,-9830.400390625,-9830.400390625,-9830.400390625,-9766.2001953125,-8352.599609375,-7670.7001953125,-7660.7998046875,-24823.5,-9830.400390625,3.9000000953674316,-1444.5,-3218.10009765625,650.7000122070312,-1505.4000244140625,-2806.5,-8.399999618530273,0.8999999761581421,122.69999694824219,-929.7000122070312,-14.100000381469727,-9830.400390625,-2185.800048828125,-8037.60009765625,0.0
3.1847636156579067,9830.099609375,9830.099609375,9830.099609375,9830.099609375,9830.099609375,9830.099609375,9830.099609375,9830.099609375,5038.7998046875,-4146.0,9830.099609375,9591.0,9830.099609375,9830.099609375,9830.099609375,9830.099609375,-8.699999809265137,1.2000000476837158,9830.099609375,9076.5,-13.800000190734863,-499.79998779296875,9830.099609375,9830.099609375,0.0
3.1850924284832107,-8061.89990234375,-7234.7998046875,-7016.10009765625,-6745.5,-8091.60009765625,-8523.599609375,-8463.599609375,-8769.599609375,4075.5,9693.2998046875,-9830.400390625,-9830.400390625,-8279.400390625,-8602.2001953125,-8718.2998046875,-8625.0,-9.0,0.6000000238418579,-9825.0,-9830.400390625,-14.100000381469727,9830.099609375,-9137.7001953125,-7925.39990234375,0.0
3.185365102533463,446.1000061035156,799.5,2116.199951171875,1152.9000244140625,1499.699951171875,1552.199951171875,730.7999877929688,1531.5,-12967.5,9830.099609375,613.7999877929688,2411.39990234375,-2206.199951171875,-2789.10009765625,-2316.89990234375,-2160.89990234375,-8.399999618530273,0.6000000238418579,-803.7000122070312,1709.0999755859375,-14.100000381469727,9830.099609375,-1604.699951171875,-1351.199951171875,0.0
3.1856647231957402,6544.2001953125,6466.2001953125,5985.2998046875,6640.5,6454.2001953125,6332.10009765625,6480.89990234375,6438.2998046875,26009.099609375,1028.699951171875,7653.2998046875,8333.400390625,7495.2001953125,7673.10009765625,7231.7998046875,7571.39990234375,-9.0,0.8999999761581421,7602.60009765625,9795.599609375,-13.800000190734863,-4776.0,8123.7001953125,8088.89990234375,0.0
3.1859611359280144,-9830.400390625,-9830.400390625,-9830.400390625,-9830.400390625,-9830.400390625,-9830.400390625,-9830.400390625,-9830.400390625,-33567.30078125,-9830.400390625,-9698.400390625,-9830.400390625,-9461.7001953125,-8662.7998046875,-9201.599609375,-9568.5,-8.399999618530273,0.6000000238418579,-9415.5,-9830.400390625,-13.800000190734863,-9830.400390625,-9448.7998046875,-9830.400390625,0.0
3.1862588318322898,9830.099609375,9830.099609375,9830.099609375,9830.099609375,9830.099609375,9830.099609375,9830.099609375,9830.099609375,26083.19921875,-7393.5,9830.099609375,9830.099609375,9830.099609375,9830.099609375,9830.099609375,9830.099609375,-8.399999618530273,0.8999999761581421,9830.099609375,9830.099609375,-14.399999618530273,-3110.10009765625,9830.099609375,9830.099609375,0.0
3.1865286187455393,-5317.7998046875,-5116.7998046875,-4420.5,-5013.2998046875,-5105.10009765625,-4816.7998046875,-5125.5,-4268.7001953125,-25860.900390625,8297.099609375,-5501.7001953125,-6723.2998046875,-6797.10009765625,-6543.89990234375,-5970.89990234375,-6018.2998046875,-9.0,2.0999999046325684,-5296.5,-8003.39990234375,-14.100000381469727,9830.099609375,-6969.0,-7477.2001953125,0.0
3.2307387060814334,-2678.699951171875,-1488.9000244140625,-869.7000122070312,-670.7999877929688,-1859.699951171875,-2926.800048828125,-3295.5,-3888.60009765625,20007.0,9830.099609375,-7411.5,-4923.2998046875,-3626.10009765625,-5477.39990234375,-6024.0,-5289.60009765625,-8.399999618530273,0.8999999761581421,-7790.10009765625,-3799.800048828125,-14.399999618530273,8374.2001953125,-3924.0,-1051.199951171875,0.0
3.2310469881547186,9249.0,8483.7001953125,8301.2998046875,8283.900390625,9201.900390625,9786.0,9817.2001953125,9830.099609375,-3779.10009765625,347.1000061035156,9830.099609375,9830.099609375,9408.2998046875,9830.099609375,9830.099609375,9830.099609375,-8.699999809265137,1.2000000476837158,9830.099609375,9830.099609375,-13.800000190734863,-7553.7001953125,9830.099609375,8585.400390625,0.0
3.2313417969219915,-9830.400390625,-9830.400390625,-9830.400390625,-9830.400390625,-9830.400390625,-9830.400390625,-9830.400390625,-9830.400390625,-12152.400390625,-9830.400390625,-6951.2998046875,-7045.7998046875,-7526.39990234375,-5267.39990234375,-7252.5,-7951.5,-8.699999809265137,0.30000001192092896,-7116.89990234375,-5810.7001953125,-13.800000190734863,-9830.400390625,-7462.7998046875,-8481.0,0.0
3.23163243538026,8244.2998046875,8276.099609375,6335.10009765625,7695.0,6541.7998046875,6009.60009765625,7390.5,4697.7001953125,17043.0,-8346.900390625,2598.0,-789.2999877929688,9830.099609375,9830.099609375,9830.099609375,9830.099609375,-8.399999618530273,0.6000000238418579,5137.7998046875,-3204.60009765625,-13.800000190734863,-4833.89990234375,9830.099609375,9830.099609375,0.0
3.2319224322525284,3786.300048828125,4798.2001953125,8559.2998046875,5297.7001953125,6083.10009765625,6715.7998046875,4768.7998046875,7231.5,-30010.5,6425.10009765625,4991.39990234375,5409.60009765625,-6207.89990234375,-4566.60009765625,-1961.4000244140625,-2735.699951171875,-9.0,1.2000000476837158,3686.699951171875,1703.4000244140625,-13.800000190734863,9830.099609375,-5772.60009765625,-9830.400390625,0.0
3.2322101835737946,-9830.400390625,-5094.60009765625,-3333.300048828125,-1063.5,-7791.89990234375,-9830.400390625,-9830.400390625,-9830.400390625,36457.19921875,9830.099609375,-9830.400390625,-9830.400390625,-9830.400390625,-9830.400390625,-9830.400390625,-9830.400390625,-8.399999618530273,0.8999999761581421,-9830.400390625,-9830.400390625,-13.800000190734863,7641.2998046875,-9830.400390625,-2094.0,0.0
3.232498897274062,-812.7000122070312,-2715.300048828125,-2017.199951171875,-3064.199951171875,446.3999938964844,1395.0,733.2000122070312,2244.0,-29121.30078125,-4584.2998046875,5277.0,7668.60009765625,-1948.199951171875,-400.20001220703125,-93.0,-395.3999938964844,-8.699999809265137,1.2000000476837158,3939.0,8541.900390625,-14.399999618530273,-8374.5,1001.4000244140625,-1176.0,0.0
3.2327872901813284,9786.0,9385.2001953125,7143.2998046875,8578.2001953125,8398.5,8170.5,9192.2998046875,7732.7998046875,17339.400390625,-9830.400390625,8062.7998046875,6396.60009765625,9830.099609375,9830.099609375,9830.099609375,9830.099609375,-8.699999809265137,0.6000000238418579,9444.599609375,7040.10009765625,-13.800000190734863,-9830.400390625,9830.099609375,9830.099609375,0.0
3.2330747207095945,-9830.400390625,-9830.400390625,-9830.400390625,-9830.400390625,-9830.400390625,-9830.400390625,-9830.400390625,-9830.400390625,-12819.2998046875,-8586.2998046875,-9830.400390625,-9830.400390625,-9830.400390625,-9830.400390625,-9830.400390625,-9830.400390625,-8.100000381469727,1.7999999523162842,-9830.400390625,-9830.400390625,-14.100000381469727,-4969.5,-9830.400390625,-9830.400390625,0.0
3.23336183044486,8391.2998046875,8357.400390625,9078.0,8131.5,8559.2998046875,9098.400390625,8879.7001953125,9300.2998046875,-4668.2998046875,7288.5,9830.099609375,9125.7001953125,5179.5,5701.5,7454.7001953125,6743.39990234375,-8.699999809265137,0.8999999761581421,9830.099609375,6572.39990234375,-14.100000381469727,9830.099609375,5062.5,3839.10009765625,0.0
3.233649581766126,-836.0999755859375,108.30000305175781,553.5,875.0999755859375,-178.1999969482422,-903.5999755859375,-1367.4000244140625,-1135.800048828125,19562.400390625,9830.099609375,-6673.7998046875,-4975.5,-2047.199951171875,-3908.10009765625,-4215.2998046875,-3123.60009765625,-8.699999809265137,0.8999999761581421,-6533.39990234375,-4203.2998046875,-13.800000190734863,8723.7001953125,-2380.5,383.1000061035156,0.0
3.2339386162593935,-7274.10009765625,-7727.39990234375,-7991.10009765625,-7852.2001953125,-7302.2998046875,-7148.10009765625,-6989.39990234375,-7192.2001953125,-24453.0,-3158.10009765625,-2902.5,-2114.39990234375,-6550.2001953125,-5717.39990234375,-5742.89990234375,-6169.5,-7.800000190734863,0.0,-3660.89990234375,-1480.199951171875,-14.399999618530273,-7061.10009765625,-5639.7001953125,-6606.60009765625,0.0
3.23422700916666,9830.099609375,9830.099609375,9830.099609375,9830.099609375,9830.099609375,9830.099609375,9830.099609375,9830.099609375,26824.19921875,-9830.400390625,9830.099609375,9830.099609375,9830.099609375,9830.099609375,9830.099609375,9830.099609375,-9.0,1.5,9830.099609375,9830.099609375,-13.800000190734863,-9830.400390625,9830.099609375,9830.099609375,0.0
3.2345147604879263,-9830.400390625,-9830.400390625,-9830.400390625,-9830.400390625,-9830.400390625,-9830.400390625,-9830.400390625,-9830.400390625,-34308.30078125,-9231.900390625,-8674.5,-9647.7001953125,-9830.400390625,-9143.099609375,-9057.2998046875,-9346.5,-8.699999809265137,1.2000000476837158,-8420.099609375,-9557.400390625,-14.100000381469727,-3642.89990234375,-9830.400390625,-9830.400390625,0.0
3.2348018702231918,5835.89990234375,6421.7998046875,6723.0,6527.7001953125,5961.60009765625,5618.7001953125,5517.89990234375,5023.2001953125,25490.400390625,6614.7001953125,-166.5,-407.70001220703125,4499.10009765625,3091.800048828125,3428.10009765625,3646.800048828125,-8.399999618530273,0.6000000238418579,613.5,-1638.5999755859375,-14.399999618530273,9830.099609375,3350.699951171875,5111.7001953125,0.0
3.235089942337458,2015.0999755859375,2233.800048828125,3168.60009765625,2652.300048828125,2850.89990234375,3024.60009765625,2366.10009765625,3816.0,-13856.7001953125,9830.099609375,4167.0,6213.2998046875,-739.7999877929688,-819.0,-69.0,275.3999938964844,-9.0,0.6000000238418579,2740.5,6484.2001953125,-13.800000190734863,9248.400390625,175.8000030517578,-235.5,0.0
3.2353796184167263,-9595.5,-9631.2001953125,-9830.400390625,-9491.7001953125,-9830.400390625,-9830.400390625,-9830.400390625,-9830.400390625,5112.89990234375,1179.9000244140625,-9830.400390625,-9830.400390625,-7209.89990234375,-7666.5,-8563.7998046875,-8423.7001953125,-8.100000381469727,0.0,-9830.400390625,-8190.60009765625,-14.100000381469727,-4647.89990234375,-7193.10009765625,-5673.2998046875,0.0
3.2356683321169935,9830.099609375,9830.099609375,9830.099609375,9830.099609375,9830.099609375,9830.099609375,9830.099609375,9830.099609375,5335.2001953125,-9830.400390625,9830.099609375,9830.099609375,9830.099609375,9830.099609375,9830.099609375,9830.099609375,-8.699999809265137,0.0,9830.099609375,9830.099609375,-14.399999618530273,-9830.400390625,9830.099609375,9830.099609375,0.0
3.277549141477733,-6274.5,-8420.7001953125,-8847.2998046875,-9830.400390625,-7474.7998046875,-5387.10009765625,-4808.39990234375,-4002.89990234375,-25564.5,-6348.60009765625,641.7000122070312,-2425.800048828125,-5226.60009765625,-2022.9000244140625,-990.2999877929688,-2328.89990234375,-9.300000190734863,1.2000000476837158,1252.199951171875,-4108.7998046875,-13.800000190734863,1914.9000244140625,-4917.89990234375,-9830.400390625,0.0
3.2781939354083294,-4208.10009765625,369.0,1912.800048828125,2943.0,-2542.5,-5094.0,-6118.7998046875,-6503.39990234375,30381.0,8710.2001953125,-9830.400390625,-9830.400390625,-9208.5,-9830.400390625,-9830.400390625,-9830.400390625,-8.399999618530273,0.0,-9830.400390625,-9830.400390625,-13.800000190734863,9830.099609375,-9830.400390625,-3372.60009765625,0.0
