daq_type,DSI
sample_rate,300
timestamp,P3,C3,F3,Fz,F4,C4,P4,Cz,CM,A1,Fp1,Fp2,T3,T5,O1,O2,X3,X2,F7,F8,X1,A2,T6,T4,TRG                       
2.0868771603403617,-8250.2998046875,-8111.39990234375,-8452.7998046875,-7845.2998046875,-8197.2001953125,-8565.599609375,-8577.900390625,-8451.599609375,-2741.699951171875,-3277.199951171875,-9481.7998046875,-8314.5,-6772.5,-7317.89990234375,-8197.5,-7737.0,-8.699999809265137,1.5,-9460.5,-6382.2001953125,-13.800000190734863,-8440.5,-6682.2001953125,-5497.2001953125,0.0
2.088797427240138,228.0,-661.5,-1249.199951171875,-1347.9000244140625,-536.4000244140625,79.80000305175781,603.5999755859375,131.10000610351562,-11337.2998046875,-9830.400390625,5415.89990234375,4340.7001953125,2088.89990234375,3577.800048828125,3537.89990234375,2685.60009765625,-8.399999618530273,0.8999999761581421,5140.5,4383.89990234375,-14.399999618530273,-9830.400390625,2515.800048828125,271.20001220703125,0.0
2.09415114162209,7267.7998046875,7288.5,7361.39990234375,7136.10009765625,7044.2998046875,7253.10009765625,7216.7998046875,7638.2998046875,17413.5,251.10000610351562,5575.7998046875,4524.2998046875,6974.7001953125,6723.60009765625,6880.2001953125,6978.89990234375,-9.300000190734863,1.5,6092.39990234375,3683.39990234375,-13.800000190734863,3761.699951171875,6339.2998046875,6481.7998046875,0.0
2.1012958433246984,-9830.400390625,-9830.400390625,-9830.400390625,-9830.400390625,-9830.400390625,-9830.400390625,-9830.400390625,-9830.400390625,-25045.80078125,9830.099609375,-9830.400390625,-9830.400390625,-9830.400390625,-9830.400390625,-9830.400390625,-9830.400390625,-8.100000381469727,0.0,-9830.400390625,-9830.400390625,-13.800000190734863,9830.099609375,-9830.400390625,-9830.400390625,0.0
2.104859853557995,9830.099609375,9830.099609375,9830.099609375,9830.099609375,9830.099609375,9830.099609375,9830.099609375,9830.099609375,35345.69921875,9830.099609375,6729.60009765625,8186.10009765625,9286.7998046875,7985.7001953125,7970.10009765625,8424.599609375,-8.699999809265137,1.5,6503.7001953125,7963.7998046875,-14.399999618530273,7611.2998046875,9319.5,9830.099609375,0.0
2.1064134540584325,-5662.5,-6189.2998046875,-6105.60009765625,-6198.0,-5541.60009765625,-5064.89990234375,-5234.39990234375,-4148.10009765625,-28528.5,-3558.0,1125.9000244140625,1902.9000244140625,-5359.7998046875,-4062.60009765625,-4099.2001953125,-4400.39990234375,-8.699999809265137,0.8999999761581421,-112.80000305175781,3325.800048828125,-13.800000190734863,-8474.099609375,-4089.300048828125,-5903.10009765625,0.0
2.106814124515803,-2654.39990234375,-2925.60009765625,-4422.0,-3413.10009765625,-3974.10009765625,-4257.0,-3252.0,-5229.0,20748.0,-9830.400390625,-5598.2998046875,-7714.7998046875,1839.5999755859375,1802.0999755859375,551.7000122070312,303.29998779296875,-8.399999618530273,0.6000000238418579,-3832.5,-7464.89990234375,-14.100000381469727,-9830.400390625,921.0,1875.9000244140625,0.0
2.107185602810147,9746.7001953125,9393.900390625,9830.099609375,8884.2001953125,9804.2998046875,9830.099609375,9830.099609375,9830.099609375,-14523.599609375,-4468.7998046875,9830.099609375,9830.099609375,7515.0,8352.900390625,9280.7998046875,8926.7998046875,-8.699999809265137,2.0999999046325684,9830.099609375,9721.5,-13.800000190734863,567.2999877929688,7782.0,4990.7998046875,0.0
2.107550344451484,-9830.400390625,-9659.400390625,-7764.89990234375,-8631.599609375,-9830.400390625,-9830.400390625,-9830.400390625,-9474.2998046875,1556.0999755859375,9830.099609375,-9490.5,-9830.400390625,-9830.400390625,-9830.400390625,-9830.400390625,-9830.400390625,-9.0,1.7999999523162842,-9366.0,-9830.400390625,-14.100000381469727,9830.099609375,-9830.400390625,-9830.400390625,0.0
2.1079311257428364,-386.3999938964844,2834.699951171875,5621.7001953125,6301.2001953125,2705.39990234375,371.1000061035156,-1199.4000244140625,-629.4000244140625,19562.400390625,9830.099609375,-4102.7998046875,-867.2999877929688,-4022.699951171875,-5943.89990234375,-6267.2998046875,-5654.10009765625,-8.399999618530273,0.8999999761581421,-5113.7998046875,744.9000244140625,-14.399999618530273,4692.0,-2352.300048828125,3130.199951171875,0.0
2.1082977921421753,7898.7001953125,3232.5,2161.199951171875,1288.199951171875,6855.89990234375,9729.900390625,9830.099609375,9830.099609375,-25045.80078125,-3471.300048828125,9830.099609375,9830.099609375,8614.2001953125,9830.099609375,9830.099609375,9830.099609375,-9.0,1.5,9830.099609375,9830.099609375,-14.100000381469727,-9695.099609375,9830.099609375,5472.0,0.0
2.1086628545765134,-6674.10009765625,-6708.89990234375,-9148.5,-6922.7998046875,-8260.5,-9029.7001953125,-7985.10009765625,-9392.7001953125,29565.900390625,-9830.400390625,-8418.599609375,-8686.2001953125,4278.89990234375,3342.0,417.8999938964844,324.29998779296875,-8.699999809265137,0.8999999761581421,-7253.7001953125,-6818.39990234375,-13.5,-9830.400390625,1383.0,5303.39990234375,0.0
2.1090253506668484,-2181.0,-3713.39990234375,-2644.199951171875,-4932.89990234375,-2700.89990234375,-697.2000122070312,-741.9000244140625,-21.0,-33789.6015625,-5721.2998046875,4630.5,1368.0,-3905.39990234375,282.29998779296875,1988.4000244140625,-973.7999877929688,-8.399999618530273,0.8999999761581421,4920.0,-2409.0,-14.100000381469727,-517.5,-5207.10009765625,-9830.400390625,0.0
2.1093968289611924,9830.099609375,9830.099609375,9830.099609375,9830.099609375,9830.099609375,9790.2001953125,9383.099609375,9373.5,28602.599609375,9830.099609375,3005.699951171875,4335.60009765625,7990.2001953125,5624.39990234375,5857.7998046875,7045.2001953125,-9.0,1.5,3242.39990234375,3924.300048828125,-14.100000381469727,9830.099609375,7119.60009765625,9394.2001953125,0.0
2.109771515185539,-9830.400390625,-9830.400390625,-9830.400390625,-9830.400390625,-9830.400390625,-9830.400390625,-9830.400390625,-9830.400390625,-11263.2001953125,8355.0,-9830.400390625,-9830.400390625,-9830.400390625,-9830.400390625,-9830.400390625,-9830.400390625,-8.399999618530273,0.30000001192092896,-9830.400390625,-9830.400390625,-13.800000190734863,3328.199951171875,-9830.400390625,-9830.400390625,0.0
2.1101420311008816,7234.2001953125,6756.89990234375,6815.39990234375,6551.7001953125,7439.10009765625,7753.7998046875,7578.60009765625,7869.2998046875,4742.39990234375,-8168.10009765625,9585.900390625,9830.099609375,7518.0,7654.7998046875,7564.2001953125,7469.39990234375,-8.399999618530273,0.0,8840.099609375,9830.099609375,-14.100000381469727,-9830.400390625,8293.7998046875,7432.7998046875,0.0
2.110515754946227,140.10000610351562,-314.3999938964844,-1228.5,-589.7999877929688,-637.7999877929688,-440.3999938964844,31.200000762939453,-146.10000610351562,6076.2001953125,-9830.400390625,1745.4000244140625,486.6000061035156,2138.39990234375,2958.60009765625,2641.5,2452.800048828125,-9.0,1.5,2417.10009765625,1197.0,-13.5,-9830.400390625,1989.300048828125,1367.699951171875,0.0
2.110887233240571,-6724.7998046875,-6714.2998046875,-6456.2998046875,-6953.39990234375,-6904.7998046875,-6714.89990234375,-6702.60009765625,-7029.2998046875,-21711.30078125,-5703.60009765625,-8154.60009765625,-9565.7998046875,-6897.89990234375,-7065.89990234375,-6732.2998046875,-7201.5,-8.399999618530273,-0.30000001192092896,-7559.10009765625,-9830.400390625,-13.800000190734863,-770.0999755859375,-7855.7998046875,-7830.2998046875,0.0
2.1112529372609092,9830.099609375,9830.099609375,9830.099609375,9830.099609375,9830.099609375,9830.099609375,9830.099609375,9830.099609375,30010.5,9830.099609375,9830.099609375,9830.099609375,9830.099609375,9543.0,9830.099609375,9830.099609375,-8.699999809265137,1.5,9830.099609375,9830.099609375,-13.800000190734863,9830.099609375,9720.900390625,9830.099609375,0.0
2.1117690931983866,-9830.400390625,-9830.400390625,-9830.400390625,-9830.400390625,-9830.400390625,-9830.400390625,-9830.400390625,-9830.400390625,-26601.900390625,9807.599609375,-9830.400390625,-9830.400390625,-9830.400390625,-9830.400390625,-9830.400390625,-9830.400390625,-8.699999809265137,0.6000000238418579,-9830.400390625,-9830.400390625,-14.100000381469727,5617.5,-9830.400390625,-9830.400390625,0.0
2.1121732923787606,4537.2001953125,4823.10009765625,4175.39990234375,5086.2001953125,4505.39990234375,3815.10009765625,4047.300048828125,2951.39990234375,31047.900390625,-6260.7001953125,3275.699951171875,5047.7998046875,6407.39990234375,5590.7998046875,4643.7001953125,4974.89990234375,-8.399999618530273,0.30000001192092896,3124.800048828125,6995.39990234375,-14.399999618530273,-9201.2998046875,6457.2001953125,7759.5,0.0
2.1125643390461217,3611.10009765625,1970.0999755859375,1396.5,958.2000122070312,2749.199951171875,4191.2998046875,4494.89990234375,5331.0,-25786.80078125,-9830.400390625,9193.7998046875,7094.39990234375,4355.10009765625,6648.89990234375,7315.7998046875,6390.0,-9.0,0.8999999761581421,9489.0,6033.2998046875,-13.800000190734863,-9830.400390625,5009.10009765625,1343.699951171875,0.0
2.1238514407615625,-9450.0,-8369.099609375,-8475.2998046875,-8056.5,-9658.5,-9830.400390625,-9830.400390625,-9830.400390625,10151.7001953125,-6915.89990234375,-9830.400390625,-9830.400390625,-8266.5,-9731.099609375,-9830.400390625,-9830.400390625,-9.0,0.30000001192092896,-9830.400390625,-9830.400390625,-14.100000381469727,1439.699951171875,-9830.400390625,-7602.89990234375,0.0
2.127615946620045,9830.099609375,9830.099609375,9830.099609375,9830.099609375,9830.099609375,9830.099609375,9830.099609375,9830.099609375,4297.7998046875,9553.5,3831.0,3765.0,3330.89990234375,-126.9000015258789,2871.0,3428.699951171875,-8.100000381469727,0.8999999761581421,3998.39990234375,1819.5,-14.100000381469727,9830.099609375,1620.300048828125,3718.800048828125,0.0
2.12932994362063,-4685.39990234375,-3692.10009765625,-943.2000122070312,-1475.699951171875,-1786.5,-1621.199951171875,-3487.5,-266.70001220703125,-10966.7998046875,9830.099609375,138.3000030517578,3352.199951171875,-9830.400390625,-9830.400390625,-9830.400390625,-9830.400390625,-9.0,0.6000000238418579,-2422.199951171875,5366.10009765625,-13.800000190734863,6839.7001953125,-9830.400390625,-8270.400390625,0.0
2.1297046298449764,-9830.400390625,-9830.400390625,-9830.400390625,-9830.400390625,-9830.400390625,-9830.400390625,-9830.400390625,-9830.400390625,27861.599609375,-2936.39990234375,-8214.2998046875,-8165.10009765625,350.1000061035156,-1485.0,-4329.89990234375,-4078.199951171875,-8.399999618530273,0.6000000238418579,-7593.2998046875,-5253.89990234375,-13.5,-8446.5,388.79998779296875,5655.2998046875,0.0
2.1300517278712983,6166.5,2572.199951171875,1691.4000244140625,-145.1999969482422,4845.0,7162.2001953125,7621.5,8364.599609375,-35271.6015625,-9830.400390625,9830.099609375,9830.099609375,8782.7998046875,9830.099609375,9830.099609375,9830.099609375,-9.0,0.0,9830.099609375,9830.099609375,-14.100000381469727,-9830.400390625,9830.099609375,2774.10009765625,0.0
2.1550870552004557,3677.699951171875,4985.10009765625,4197.89990234375,5269.5,2767.5,1972.800048828125,2509.199951171875,1058.4000244140625,29862.30078125,-1068.300048828125,-2046.0,-4637.10009765625,4918.5,3361.5,3015.60009765625,3309.60009765625,-9.0,1.5,-437.70001220703125,-5340.89990234375,-13.800000190734863,5494.2001953125,2752.199951171875,6112.5,0.0
2.156134123553424,-9830.400390625,-9830.400390625,-8750.400390625,-9830.400390625,-9694.2001953125,-9313.5,-9830.400390625,-8943.2998046875,-23045.099609375,9830.099609375,-9627.599609375,-8046.2998046875,-9830.400390625,-9830.400390625,-9830.400390625,-9830.400390625,-8.399999618530273,0.30000001192092896,-9830.400390625,-8822.400390625,-14.100000381469727,9830.099609375,-9830.400390625,-9830.400390625,0.0
2.1572466336784535,9830.099609375,9830.099609375,9830.099609375,9830.099609375,9830.099609375,9830.099609375,9830.099609375,9830.099609375,19858.80078125,9830.099609375,9830.099609375,9830.099609375,9245.7001953125,8763.0,9270.0,9438.599609375,-9.0,1.5,9830.099609375,9830.099609375,-14.100000381469727,7484.7001953125,9830.099609375,9830.099609375,0.0
2.158411433062531,-8168.39990234375,-8042.7001953125,-8359.5,-7749.2998046875,-8154.89990234375,-8489.099609375,-8485.5,-8369.400390625,-1630.199951171875,-3511.199951171875,-9407.7001953125,-8300.400390625,-6614.10009765625,-7176.2998046875,-8071.7998046875,-7599.60009765625,-8.699999809265137,0.6000000238418579,-9366.2998046875,-6310.2001953125,-13.800000190734863,-8538.599609375,-6501.89990234375,-5297.39990234375,0.0
2.1595377372865725,119.4000015258789,-792.0,-1373.699951171875,-1491.9000244140625,-663.2999877929688,-30.600000381469727,491.3999938964844,2.4000000953674316,-12152.400390625,-9830.400390625,5364.2998046875,4281.60009765625,1975.800048828125,3485.39990234375,3492.89990234375,2596.199951171875,-8.399999618530273,0.8999999761581421,5082.60009765625,4247.39990234375,-14.399999618530273,-9830.400390625,2375.39990234375,110.4000015258789,0.0
2.1609983078169233,7338.89990234375,7379.7001953125,7471.7998046875,7266.60009765625,7133.7001953125,7338.89990234375,7290.0,7704.2998046875,18228.599609375,253.8000030517578,5565.2998046875,4509.2998046875,7035.2998046875,6793.5,6907.2001953125,7045.5,-9.300000190734863,1.5,6101.10009765625,3726.0,-13.800000190734863,3806.10009765625,6421.2001953125,6582.2998046875,0.0
2.1620075225958573,-9830.400390625,-9830.400390625,-9830.400390625,-9830.400390625,-9830.400390625,-9830.400390625,-9830.400390625,-9830.400390625,-25564.5,9830.099609375,-9830.400390625,-9830.400390625,-9830.400390625,-9830.400390625,-9830.400390625,-9830.400390625,-8.399999618530273,0.30000001192092896,-9830.400390625,-9830.400390625,-14.100000381469727,9830.099609375,-9830.400390625,-9830.400390625,0.0
2.1628098258895987,9830.099609375,9830.099609375,9830.099609375,9830.099609375,9830.099609375,9830.099609375,9830.099609375,9830.099609375,35568.0,9830.099609375,6792.0,8223.2998046875,9279.0,8000.10009765625,7960.2001953125,8440.2001953125,-8.399999618530273,1.2000000476837158,6551.39990234375,8025.0,-14.100000381469727,7471.2001953125,9333.0,9830.099609375,0.0
2.1636897610894135,-5570.10009765625,-6042.89990234375,-5998.5,-6071.39990234375,-5428.2001953125,-4930.2001953125,-5120.39990234375,-4038.300048828125,-28306.19921875,-3663.300048828125,1162.800048828125,1930.5,-5225.10009765625,-3915.60009765625,-3955.5,-4244.10009765625,-9.0,2.0999999046325684,-56.099998474121094,3335.699951171875,-13.800000190734863,-8595.599609375,-3927.0,-5724.60009765625,0.0
2.1647576809874005,-2758.199951171875,-3072.89990234375,-4512.89990234375,-3516.300048828125,-4048.5,-4357.5,-3342.89990234375,-5274.60009765625,19858.80078125,-9830.400390625,-5654.39990234375,-7807.5,1636.5,1610.4000244140625,415.79998779296875,167.39999389648438,-8.100000381469727,0.8999999761581421,-3869.39990234375,-7599.60009765625,-14.100000381469727,-9830.400390625,770.0999755859375,1614.300048828125,0.0
2.1657139649212853,9756.2998046875,9450.0,9830.099609375,8997.599609375,9830.099609375,9830.099609375,9830.099609375,9830.099609375,-13856.7001953125,-4351.2001953125,9830.099609375,9830.099609375,7589.39990234375,8397.599609375,9318.2998046875,8968.2001953125,-9.0,1.2000000476837158,9830.099609375,9671.099609375,-13.800000190734863,664.5,7871.7001953125,5206.5,0.0
2.1666554923771564,-9830.400390625,-9812.7001953125,-8054.39990234375,-8835.599609375,-9830.400390625,-9830.400390625,-9830.400390625,-9529.7998046875,444.6000061035156,9830.099609375,-9537.0,-9830.400390625,-9830.400390625,-9830.400390625,-9830.400390625,-9830.400390625,-9.0,1.2000000476837158,-9456.599609375,-9830.400390625,-13.800000190734863,9830.099609375,-9830.400390625,-9830.400390625,0.0
2.167792703563208,-89.0999984741211,3129.300048828125,5882.7001953125,6628.2001953125,2919.0,564.0,-916.5,-384.8999938964844,20377.5,9830.099609375,-4024.199951171875,-825.9000244140625,-3689.39990234375,-5646.89990234375,-5967.2998046875,-5357.10009765625,-8.399999618530273,0.8999999761581421,-5011.5,819.9000244140625,-13.800000190734863,4452.0,-1925.0999755859375,3610.199951171875,0.0
2.170435075506653,7701.60009765625,3001.199951171875,1860.0,1009.5,6538.2001953125,9539.099609375,9830.099609375,9830.099609375,-25786.80078125,-3733.199951171875,9830.099609375,9830.099609375,8626.2001953125,9830.099609375,9830.099609375,9830.099609375,-8.699999809265137,1.2000000476837158,9830.099609375,9830.099609375,-14.100000381469727,-9771.0,9830.099609375,5377.7998046875,0.0
2.1714324209445746,-6850.7998046875,-6847.2001953125,-9298.2001953125,-7117.7998046875,-8443.7998046875,-9201.0,-8133.60009765625,-9478.7998046875,29640.0,-9830.400390625,-8422.5,-8737.2001953125,4463.7001953125,3508.800048828125,598.2000122070312,420.0,-8.699999809265137,0.8999999761581421,-7290.0,-6890.7001953125,-13.5,-9830.400390625,1527.5999755859375,5505.60009765625,0.0
2.1722995244243775,-2135.699951171875,-3690.89990234375,-2594.699951171875,-4890.0,-2681.39990234375,-667.2000122070312,-636.2999877929688,43.79999923706055,-33863.69921875,-5592.2998046875,4601.7001953125,1373.699951171875,-3957.0,279.0,2104.199951171875,-887.0999755859375,-8.699999809265137,0.30000001192092896,4893.89990234375,-2385.89990234375,-14.100000381469727,-349.5,-5321.39990234375,-9830.400390625,0.0
2.173106960406124,9830.099609375,9830.099609375,9830.099609375,9830.099609375,9830.099609375,9806.400390625,9396.0,9418.5,27861.599609375,9830.099609375,3047.699951171875,4349.10009765625,7868.7001953125,5511.2998046875,5816.7001953125,6950.10009765625,-9.0,1.5,3181.800048828125,3969.89990234375,-14.100000381469727,9830.099609375,7111.5,9346.7998046875,0.0
2.1740077471509576,-9830.400390625,-9830.400390625,-9830.400390625,-9830.400390625,-9830.400390625,-9830.400390625,-9830.400390625,-9830.400390625,-10670.400390625,8197.5,-9830.400390625,-9830.400390625,-9830.400390625,-9830.400390625,-9830.400390625,-9830.400390625,-8.100000381469727,1.5,-9830.400390625,-9830.400390625,-14.100000381469727,3246.0,-9830.400390625,-9830.400390625,0.0
2.1749114210327933,7151.39990234375,6636.0,6698.39990234375,6434.10009765625,7358.39990234375,7660.2001953125,7523.10009765625,7780.7998046875,3779.10009765625,-8258.400390625,9613.7998046875,9830.099609375,7435.2001953125,7594.2001953125,7519.5,7401.60009765625,-8.399999618530273,0.30000001192092896,8860.7998046875,9830.099609375,-14.100000381469727,-9830.400390625,8235.0,7318.5,0.0
2.175904275368712,228.3000030517578,-218.10000610351562,-1118.0999755859375,-474.29998779296875,-497.1000061035156,-372.0,158.6999969482422,-57.0,7113.60009765625,-9830.400390625,1710.300048828125,490.20001220703125,2244.0,3057.0,2735.699951171875,2574.89990234375,-9.0,1.2000000476837158,2412.60009765625,1177.199951171875,-13.800000190734863,-9830.400390625,2102.39990234375,1514.4000244140625,0.0
2.1770713203037912,-6810.2998046875,-6822.0,-6543.2998046875,-7060.5,-6960.60009765625,-6798.0,-6803.10009765625,-7094.10009765625,-22452.30078125,-5586.89990234375,-8218.7998046875,-9577.2001953125,-7062.89990234375,-7223.10009765625,-6888.89990234375,-7360.2001953125,-8.399999618530273,0.6000000238418579,-7659.60009765625,-9830.400390625,-13.800000190734863,-611.0999755859375,-7968.60009765625,-7951.2001953125,0.0
2.1778845305595436,9830.099609375,9830.099609375,9830.099609375,9830.099609375,9830.099609375,9830.099609375,9830.099609375,9830.099609375,30232.80078125,9830.099609375,9830.099609375,9830.099609375,9830.099609375,9534.599609375,9830.099609375,9830.099609375,-9.300000190734863,1.5,9830.099609375,9830.099609375,-14.100000381469727,9830.099609375,9759.900390625,9830.099609375,0.0
2.178695174471293,-9830.400390625,-9830.400390625,-9830.400390625,-9830.400390625,-9830.400390625,-9830.400390625,-9830.400390625,-9830.400390625,-26750.099609375,9739.5,-9830.400390625,-9830.400390625,-9830.400390625,-9830.400390625,-9830.400390625,-9830.400390625,-9.0,0.8999999761581421,-9830.400390625,-9830.400390625,-14.100000381469727,5506.5,-9830.400390625,-9830.400390625,0.0
2.179702464492225,4417.7998046875,4659.60009765625,3995.699951171875,4867.2001953125,4397.10009765625,3671.39990234375,3942.89990234375,2864.39990234375,30306.900390625,-6330.60009765625,3270.0,5063.7001953125,6298.5,5514.89990234375,4549.7998046875,4875.2998046875,-8.399999618530273,0.8999999761581421,3089.39990234375,6964.7998046875,-14.100000381469727,-9254.400390625,6374.7001953125,7605.89990234375,0.0
2.180524336158985,3704.10009765625,2093.10009765625,1584.5999755859375,1145.699951171875,2860.800048828125,4241.7001953125,4580.7001953125,5411.10009765625,-25416.30078125,-9830.400390625,9182.400390625,7098.0,4394.7001953125,6653.7001953125,7339.5,6413.7001953125,-8.699999809265137,0.8999999761581421,9470.099609375,6039.89990234375,-13.5,-9830.400390625,5085.0,1503.300048828125,0.0
2.1814527111018434,-9495.2998046875,-8481.599609375,-8588.400390625,-8208.599609375,-9684.0,-9830.400390625,-9830.400390625,-9830.400390625,9114.2998046875,-6741.2998046875,-9830.400390625,-9830.400390625,-8427.2998046875,-9830.400390625,-9830.400390625,-9830.400390625,-9.0,0.8999999761581421,-9830.400390625,-9830.400390625,-13.800000190734863,1680.5999755859375,-9830.400390625,-7737.89990234375,0.0
2.1822546936025855,9830.099609375,9830.099609375,9830.099609375,9830.099609375,9830.099609375,9830.099609375,9830.099609375,9830.099609375,5112.89990234375,9688.5,3929.699951171875,3860.10009765625,3771.60009765625,248.6999969482422,3107.39990234375,3710.10009765625,-8.699999809265137,0.6000000238418579,4092.300048828125,1979.4000244140625,-14.100000381469727,9830.099609375,2089.800048828125,4446.0,0.0
2.2061027660376453,-4832.10009765625,-4093.5,-1340.0999755859375,-2056.800048828125,-2044.5,-1863.0,-3688.5,-520.2000122070312,-11781.900390625,9830.099609375,129.60000610351562,3338.39990234375,-9830.400390625,-9830.400390625,-9830.400390625,-9830.400390625,-9.0,1.2000000476837158,-2418.60009765625,5292.2998046875,-13.800000190734863,6757.7998046875,-9830.400390625,-8467.5,0.0
2.206934261494414,-9830.400390625,-9830.400390625,-9830.400390625,-9830.400390625,-9830.400390625,-9830.400390625,-9830.400390625,-9830.400390625,28158.0,-3017.39990234375,-8196.2998046875,-8141.10009765625,656.4000244140625,-1227.0,-4151.10009765625,-3823.800048828125,-8.699999809265137,0.6000000238418579,-7536.89990234375,-5158.5,-14.399999618530273,-8556.0,679.2000122070312,6002.39990234375,0.0
2.2075973406260276,6251.7001953125,2577.300048828125,1504.5,-453.29998779296875,4888.2001953125,7129.5,7672.5,8377.2001953125,-35642.1015625,-9830.400390625,9830.099609375,9830.099609375,8870.400390625,9830.099609375,9830.099609375,9830.099609375,-8.399999618530273,0.8999999761581421,9830.099609375,9830.099609375,-14.100000381469727,-9830.400390625,9830.099609375,2708.39990234375,0.0
2.208288328748667,3652.199951171875,4959.0,4210.7998046875,5301.0,2752.199951171875,1883.0999755859375,2441.10009765625,974.4000244140625,29788.19921875,-715.5,-2146.800048828125,-4716.2998046875,4886.7001953125,3323.10009765625,2928.300048828125,3226.800048828125,-8.699999809265137,0.8999999761581421,-540.9000244140625,-5433.89990234375,-14.100000381469727,5600.10009765625,2639.699951171875,6100.2001953125,0.0
2.2093251317256257,-9830.400390625,-9830.400390625,-8772.2998046875,-9830.400390625,-9700.7998046875,-9391.2001953125,-9830.400390625,-8996.7001953125,-22674.599609375,9830.099609375,-9613.5,-8031.0,-9830.400390625,-9830.400390625,-9830.400390625,-9830.400390625,-8.399999618530273,0.8999999761581421,-9830.400390625,-8790.599609375,-14.100000381469727,9830.099609375,-9830.400390625,-9830.400390625,0.0
2.2102393917764713,9830.099609375,9830.099609375,9830.099609375,9830.099609375,9830.099609375,9830.099609375,9830.099609375,9830.099609375,18895.5,9830.099609375,9830.099609375,9830.099609375,9176.099609375,8692.5,9219.0,9327.599609375,-9.0,0.6000000238418579,9830.099609375,9830.099609375,-14.100000381469727,7376.10009765625,9830.099609375,9830.099609375,0.0
2.210913377870095,-8066.7001953125,-7950.60009765625,-8304.599609375,-7680.60009765625,-8053.7998046875,-8458.2001953125,-8424.599609375,-8326.2001953125,-889.2000122070312,-3742.5,-9390.0,-8244.0,-6450.60009765625,-7041.0,-7978.7998046875,-7509.2998046875,-8.699999809265137,1.5,-9336.0,-6212.39990234375,-13.5,-8642.400390625,-6363.60009765625,-5105.7001953125,0.0
2.211579985724711,3.299999952316284,-927.9000244140625,-1526.699951171875,-1620.0,-763.5,-176.39999389648438,360.6000061035156,-88.19999694824219,-13189.7998046875,-9830.400390625,5340.89990234375,4202.10009765625,1847.699951171875,3393.89990234375,3386.10009765625,2469.89990234375,-8.399999618530273,0.6000000238418579,5041.5,4160.39990234375,-14.100000381469727,-9830.400390625,2242.199951171875,-81.0,0.0
2.212257179748338,7431.0,7485.2998046875,7589.10009765625,7367.39990234375,7240.7998046875,7413.0,7378.2001953125,7801.5,18673.19921875,257.3999938964844,5554.7998046875,4548.60009765625,7138.7998046875,6835.5,6963.89990234375,7090.5,-9.0,0.0,6075.2998046875,3786.89990234375,-13.5,3910.199951171875,6487.5,6724.7998046875,0.0
2.233829546639292,-9830.400390625,-9830.400390625,-9830.400390625,-9830.400390625,-9830.400390625,-9830.400390625,-9830.400390625,-9830.400390625,-26009.099609375,9830.099609375,-9830.400390625,-9830.400390625,-9830.400390625,-9830.400390625,-9830.400390625,-9830.400390625,-8.699999809265137,0.8999999761581421,-9830.400390625,-9830.400390625,-13.800000190734863,9830.099609375,-9830.400390625,-9830.400390625,0.0
2.234653022271054,9830.099609375,9830.099609375,9830.099609375,9830.099609375,9830.099609375,9830.099609375,9830.099609375,9830.099609375,35345.69921875,9830.099609375,6770.10009765625,8245.2001953125,9240.2998046875,7964.39990234375,7920.0,8386.7998046875,-8.699999809265137,1.5,6527.10009765625,8039.10009765625,-14.100000381469727,7350.89990234375,9271.2001953125,9830.099609375,0.0
2.2356798806650042,-5403.60009765625,-5903.39990234375,-5888.10009765625,-5943.89990234375,-5289.60009765625,-4848.89990234375,-4976.7001953125,-3956.39990234375,-28009.80078125,-3806.10009765625,1193.4000244140625,1926.9000244140625,-5011.7998046875,-3729.60009765625,-3784.800048828125,-4066.199951171875,-9.0,0.8999999761581421,-17.100000381469727,3346.800048828125,-13.5,-8712.0,-3738.60009765625,-5565.60009765625,0.0
2.236684283548933,-2852.10009765625,-3165.60009765625,-4555.7998046875,-3631.199951171875,-4119.60009765625,-4412.39990234375,-3422.39990234375,-5334.0,19266.0,-9830.400390625,-5665.2001953125,-7803.89990234375,1463.699951171875,1440.0,270.6000061035156,-5.400000095367432,-8.399999618530273,0.6000000238418579,-3946.5,-7674.0,-14.100000381469727,-9830.400390625,563.4000244140625,1402.800048828125,0.0
2.2385827365246893,9802.7998046875,9520.2001953125,9830.099609375,9074.7001953125,9830.099609375,9830.099609375,9830.099609375,9830.099609375,-13041.599609375,-4255.5,9830.099609375,9830.099609375,7711.2001953125,8463.0,9367.7998046875,9030.900390625,-9.0,1.2000000476837158,9830.099609375,9673.2001953125,-13.800000190734863,736.2000122070312,7981.5,5388.89990234375,0.0
2.239782823138799,-9830.400390625,-9830.400390625,-8250.2998046875,-9024.900390625,-9830.400390625,-9830.400390625,-9830.400390625,-9595.2001953125,-444.6000061035156,9830.099609375,-9562.5,-9830.400390625,-9830.400390625,-9830.400390625,-9830.400390625,-9830.400390625,-8.699999809265137,1.2000000476837158,-9487.5,-9830.400390625,-13.800000190734863,9830.099609375,-9830.400390625,-9830.400390625,0.0
2.2407259545596716,322.5,3535.5,6190.7998046875,6990.0,3336.300048828125,929.0999755859375,-578.0999755859375,-132.0,21118.5,9830.099609375,-3903.0,-695.4000244140625,-3049.800048828125,-5262.60009765625,-5665.2001953125,-4976.39990234375,-8.399999618530273,0.8999999761581421,-4906.2001953125,957.5999755859375,-14.100000381469727,4172.7001953125,-1392.9000244140625,4161.89990234375,0.0
2.241903585663761,7493.10009765625,2854.5,1694.0999755859375,845.7000122070312,6496.2001953125,9432.0,9830.099609375,9830.099609375,-26379.599609375,-4061.699951171875,9830.099609375,9830.099609375,8744.7001953125,9830.099609375,9830.099609375,9830.099609375,-8.399999618530273,0.8999999761581421,9830.099609375,9830.099609375,-14.399999618530273,-9830.400390625,9830.099609375,5328.0,0.0
2.242743100945537,-6905.10009765625,-6935.7001953125,-9390.2998046875,-7226.10009765625,-8511.900390625,-9267.0,-8198.400390625,-9572.099609375,29788.19921875,-9830.400390625,-8437.5,-8766.599609375,4812.89990234375,3682.5,795.9000244140625,672.2999877929688,-9.0,2.4000000953674316,-7291.2001953125,-6902.39990234375,-13.800000190734863,-9830.400390625,1700.0999755859375,5711.7001953125,0.0
2.272754248502298,-2099.10009765625,-3654.89990234375,-2535.0,-4869.2998046875,-2605.5,-612.9000244140625,-595.2000122070312,114.5999984741211,-33567.30078125,-5453.7001953125,4606.5,1328.4000244140625,-3698.699951171875,356.1000061035156,2277.0,-747.9000244140625,-8.100000381469727,0.0,4852.7998046875,-2493.0,-14.100000381469727,-207.0,-5370.89990234375,-9830.400390625,0.0
2.273756726628225,9830.099609375,9830.099609375,9830.099609375,9830.099609375,9830.099609375,9830.099609375,9431.7001953125,9427.5,27417.0,9830.099609375,2989.800048828125,4373.7001953125,7871.10009765625,5375.7001953125,5761.5,6943.5,-9.300000190734863,1.2000000476837158,3165.300048828125,3972.89990234375,-13.800000190734863,9830.099609375,7086.89990234375,9360.599609375,0.0
2.2747120481831082,-9830.400390625,-9830.400390625,-9830.400390625,-9830.400390625,-9830.400390625,-9830.400390625,-9830.400390625,-9830.400390625,-9855.2998046875,8021.10009765625,-9830.400390625,-9830.400390625,-9830.400390625,-9830.400390625,-9830.400390625,-9830.400390625,-8.100000381469727,0.8999999761581421,-9830.400390625,-9830.400390625,-13.5,3108.0,-9830.400390625,-9830.400390625,0.0
2.275694316350017,7059.2998046875,6537.2998046875,6589.7998046875,6317.39990234375,7272.0,7588.7998046875,7451.7001953125,7700.39990234375,2964.0,-8354.099609375,9615.900390625,9830.099609375,7387.5,7556.10009765625,7472.10009765625,7359.89990234375,-8.699999809265137,0.8999999761581421,8871.0,9830.099609375,-13.800000190734863,-9830.400390625,8208.2998046875,7198.2001953125,0.0
2.2775019849066895,347.1000061035156,-63.29999923706055,-987.2999877929688,-354.6000061035156,-402.0,-261.6000061035156,268.79998779296875,34.5,7928.7001953125,-9830.400390625,1736.4000244140625,507.8999938964844,2415.60009765625,3180.0,2854.199951171875,2670.60009765625,-9.0,0.6000000238418579,2476.5,1147.800048828125,-13.5,-9830.400390625,2202.60009765625,1692.0,0.0
2.2789285513790087,-6936.60009765625,-6916.7998046875,-6620.10009765625,-7171.7998046875,-7067.10009765625,-6889.2001953125,-6894.2998046875,-7182.89990234375,-23193.30078125,-5437.2001953125,-8320.5,-9672.900390625,-7190.39990234375,-7398.60009765625,-7041.2998046875,-7507.2001953125,-8.399999618530273,1.2000000476837158,-7777.5,-9830.400390625,-14.100000381469727,-475.79998779296875,-8142.60009765625,-8118.60009765625,0.0
2.27968690603171,9830.099609375,9830.099609375,9830.099609375,9830.099609375,9830.099609375,9830.099609375,9830.099609375,9830.099609375,30751.5,9830.099609375,9830.099609375,9830.099609375,9830.099609375,9546.599609375,9830.099609375,9830.099609375,-8.699999809265137,2.0999999046325684,9830.099609375,9830.099609375,-14.399999618530273,9830.099609375,9772.5,9830.099609375,0.0
2.2805030034244655,-9830.400390625,-9830.400390625,-9830.400390625,-9830.400390625,-9830.400390625,-9830.400390625,-9830.400390625,-9830.400390625,-26824.19921875,9668.099609375,-9830.400390625,-9830.400390625,-9830.400390625,-9830.400390625,-9830.400390625,-9830.400390625,-8.699999809265137,0.0,-9830.400390625,-9830.400390625,-13.800000190734863,5387.7001953125,-9830.400390625,-9830.400390625,0.0
2.281366898974264,4308.2998046875,4525.7998046875,3840.0,4715.10009765625,4258.7998046875,3608.10009765625,3856.199951171875,2756.699951171875,29936.400390625,-6401.7001953125,3310.800048828125,5061.60009765625,6209.10009765625,5478.2998046875,4523.39990234375,4828.5,-8.699999809265137,0.0,3128.10009765625,6939.2998046875,-14.399999618530273,-9300.900390625,6292.2001953125,7441.5,0.0
2.315229166499587,3788.39990234375,2243.39990234375,1731.300048828125,1322.4000244140625,2981.699951171875,4314.89990234375,4666.2001953125,5457.89990234375,-24527.099609375,-9830.400390625,9110.7001953125,7038.2998046875,4504.7998046875,6647.39990234375,7308.0,6441.2998046875,-8.699999809265137,1.5,9417.599609375,5958.2998046875,-13.5,-9830.400390625,5115.60009765625,1660.199951171875,0.0
2.3159660280212684,-9579.2998046875,-8567.400390625,-8633.7001953125,-8292.900390625,-9723.900390625,-9830.400390625,-9830.400390625,-9830.400390625,8299.2001953125,-6583.5,-9830.400390625,-9830.400390625,-8498.099609375,-9830.400390625,-9830.400390625,-9830.400390625,-9.0,1.5,-9830.400390625,-9830.400390625,-14.399999618530273,2061.60009765625,-9830.400390625,-7931.39990234375,0.0
2.316928407022159,9830.099609375,9830.099609375,9830.099609375,9830.099609375,9830.099609375,9830.099609375,9830.099609375,9830.099609375,5928.0,9819.900390625,3962.39990234375,3909.0,4224.2998046875,515.7000122070312,3377.10009765625,4062.300048828125,-8.399999618530273,0.8999999761581421,4206.2998046875,2040.300048828125,-13.5,9830.099609375,2402.699951171875,4834.7998046875,0.0
2.317882766198042,-5127.60009765625,-4477.7998046875,-1694.699951171875,-2469.89990234375,-2350.199951171875,-2058.89990234375,-3891.300048828125,-733.5,-12671.099609375,9830.099609375,95.4000015258789,3278.39990234375,-9830.400390625,-9830.400390625,-9830.400390625,-9830.400390625,-8.699999809265137,1.2000000476837158,-2492.699951171875,5190.89990234375,-13.800000190734863,6677.39990234375,-9830.400390625,-8811.0,0.0
2.318835200615923,-9701.7001953125,-9830.400390625,-9830.400390625,-9830.400390625,-9830.400390625,-9830.400390625,-9830.400390625,-9830.400390625,28602.599609375,-3104.699951171875,-8134.5,-8131.5,1094.699951171875,-894.2999877929688,-3883.199951171875,-3493.199951171875,-8.399999618530273,0.6000000238418579,-7411.2001953125,-5211.60009765625,-13.800000190734863,-8686.7998046875,958.7999877929688,6202.7998046875,0.0
2.319756838905775,6414.0,2738.699951171875,1484.4000244140625,-431.70001220703125,4963.2001953125,7281.0,7858.7998046875,8503.2001953125,-35790.30078125,-9830.400390625,9830.099609375,9830.099609375,9075.900390625,9830.099609375,9830.099609375,9830.099609375,-8.699999809265137,0.6000000238418579,9830.099609375,9830.099609375,-13.800000190734863,-9830.400390625,9830.099609375,2713.800048828125,0.0
2.3205379698614976,3599.699951171875,4993.2001953125,4233.0,5313.89990234375,2685.89990234375,1854.9000244140625,2393.39990234375,951.5999755859375,29269.5,-238.1999969482422,-2151.0,-4796.7001953125,4821.89990234375,3248.39990234375,2871.300048828125,3165.60009765625,-9.0,1.5,-551.7000122070312,-5532.89990234375,-13.5,5738.10009765625,2544.300048828125,5958.89990234375,0.0
2.321292795791196,-9830.400390625,-9830.400390625,-8824.7998046875,-9830.400390625,-9728.099609375,-9394.7998046875,-9830.400390625,-8991.2998046875,-22230.0,9830.099609375,-9631.7998046875,-8015.10009765625,-9830.400390625,-9830.400390625,-9830.400390625,-9830.400390625,-8.699999809265137,0.8999999761581421,-9830.400390625,-8779.7998046875,-14.100000381469727,9830.099609375,-9830.400390625,-9830.400390625,0.0
2.322069756437915,9830.099609375,9830.099609375,9830.099609375,9830.099609375,9830.099609375,9830.099609375,9830.099609375,9830.099609375,18154.5,9830.099609375,9830.099609375,9830.099609375,9136.5,8696.7001953125,9179.099609375,9333.599609375,-9.0,2.0999999046325684,9830.099609375,9830.099609375,-14.100000381469727,7298.10009765625,9830.099609375,9830.099609375,0.0
2.333472664426462,-7972.5,-7825.2001953125,-8208.900390625,-7583.39990234375,-7965.2998046875,-8340.599609375,-8324.099609375,-8251.2001953125,-74.0999984741211,-3994.800048828125,-9334.7998046875,-8185.2001953125,-6234.60009765625,-6859.2001953125,-7831.2001953125,-7342.5,-8.699999809265137,0.0,-9253.7998046875,-6177.89990234375,-14.100000381469727,-8729.7001953125,-6180.60009765625,-4899.0,0.0
2.3337491879927184,-122.69999694824219,-1041.300048828125,-1633.199951171875,-1747.199951171875,-865.5,-282.29998779296875,279.29998779296875,-195.3000030517578,-14004.900390625,-9830.400390625,5267.7001953125,4144.5,1713.300048828125,3282.89990234375,3282.89990234375,2398.800048828125,-8.100000381469727,0.6000000238418579,5020.5,4057.199951171875,-13.800000190734863,-9830.400390625,2150.39990234375,-272.70001220703125,0.0
2.3340141630109628,7557.89990234375,7630.5,7713.0,7506.89990234375,7355.10009765625,7521.60009765625,7484.39990234375,7860.2998046875,19562.400390625,296.1000061035156,5586.60009765625,4579.5,7240.2001953125,6937.2001953125,7041.60009765625,7197.60009765625,-9.0,0.6000000238418579,6114.2998046875,3789.89990234375,-14.100000381469727,4008.60009765625,6599.7001953125,6846.89990234375,0.0
2.334277213271206,-9830.400390625,-9830.400390625,-9830.400390625,-9830.400390625,-9830.400390625,-9830.400390625,-9830.400390625,-9830.400390625,-26157.30078125,9830.099609375,-9830.400390625,-9830.400390625,-9830.400390625,-9830.400390625,-9830.400390625,-9830.400390625,-8.399999618530273,0.8999999761581421,-9830.400390625,-9830.400390625,-13.800000190734863,9830.099609375,-9830.400390625,-9830.400390625,0.0
2.334538659566448,9830.099609375,9830.099609375,9830.099609375,9830.099609375,9830.099609375,9830.099609375,9830.099609375,9830.099609375,35493.8984375,9830.099609375,6764.39990234375,8254.7998046875,9207.0,7941.60009765625,7889.7001953125,8379.0,-8.699999809265137,0.8999999761581421,6518.10009765625,8038.7998046875,-14.399999618530273,7196.10009765625,9255.2998046875,9830.099609375,0.0
2.334800747447691,-5295.0,-5795.7001953125,-5787.0,-5819.7001953125,-5190.89990234375,-4751.7001953125,-4870.7998046875,-3876.60009765625,-27787.5,-3949.800048828125,1224.300048828125,1943.4000244140625,-4837.5,-3605.10009765625,-3692.10009765625,-3916.5,-8.699999809265137,0.8999999761581421,50.099998474121094,3333.60009765625,-13.800000190734863,-8840.400390625,-3623.699951171875,-5391.2998046875,0.0
2.3351337305819984,-2979.0,-3262.800048828125,-4615.5,-3718.800048828125,-4183.2001953125,-4482.60009765625,-3522.89990234375,-5361.60009765625,18599.099609375,-9830.400390625,-5722.7998046875,-7902.89990234375,1256.0999755859375,1276.199951171875,96.9000015258789,-135.3000030517578,-8.100000381469727,0.8999999761581421,-3983.10009765625,-7807.2001953125,-14.100000381469727,-9830.400390625,375.29998779296875,1117.800048828125,0.0
2.335395497670241,9830.099609375,9638.7001953125,9830.099609375,9230.400390625,9830.099609375,9830.099609375,9830.099609375,9830.099609375,-12152.400390625,-4143.89990234375,9830.099609375,9830.099609375,7843.2001953125,8553.2998046875,9417.0,9113.7001953125,-9.0,1.2000000476837158,9830.099609375,9647.7001953125,-14.100000381469727,867.5999755859375,8094.0,5608.5,0.0
2.335654698414481,-9830.400390625,-9830.400390625,-8402.7001953125,-9130.5,-9830.400390625,-9830.400390625,-9830.400390625,-9629.099609375,-1333.800048828125,9830.099609375,-9599.099609375,-9830.400390625,-9830.400390625,-9830.400390625,-9830.400390625,-9830.400390625,-9.0,1.5,-9560.7001953125,-9830.400390625,-13.800000190734863,9830.099609375,-9830.400390625,-9830.400390625,0.0
2.3447264036698723,728.7000122070312,3848.699951171875,6500.39990234375,7318.2001953125,3645.0,1219.5,-211.1999969482422,51.900001525878906,21859.5,9830.099609375,-3868.5,-683.7000122070312,-2545.5,-4900.2001953125,-5365.7998046875,-4539.60009765625,-8.399999618530273,2.0999999046325684,-4809.89990234375,1011.5999755859375,-14.399999618530273,3876.89990234375,-1013.4000244140625,4766.7001953125,0.0
2.344996511376122,7386.2998046875,2673.300048828125,1496.699951171875,631.7999877929688,6225.89990234375,9288.599609375,9830.099609375,9830.099609375,-26824.19921875,-4351.7998046875,9830.099609375,9830.099609375,8807.099609375,9830.099609375,9830.099609375,9830.099609375,-9.0,1.5,9830.099609375,9830.099609375,-13.800000190734863,-9830.400390625,9830.099609375,5197.5,0.0
2.345260844808366,-7042.5,-7063.2001953125,-9548.099609375,-7411.2001953125,-8750.7001953125,-9422.7001953125,-8403.0,-9681.599609375,29936.400390625,-9830.400390625,-8433.599609375,-8803.5,4957.7998046875,3885.300048828125,900.9000244140625,855.2999877929688,-9.0,1.5,-7311.0,-6950.7001953125,-13.800000190734863,-9830.400390625,1768.5,5844.2998046875,0.0
2.3455238950686095,-1996.5,-3596.39990234375,-2437.800048828125,-4849.2001953125,-2570.699951171875,-526.7999877929688,-497.70001220703125,177.0,-33493.19921875,-5319.2998046875,4583.7001953125,1275.300048828125,-3810.0,255.3000030517578,2330.39990234375,-592.7999877929688,-8.399999618530273,0.6000000238418579,4896.89990234375,-2562.300048828125,-14.100000381469727,-59.70000076293945,-5572.5,-9830.400390625,0.0
2.345784699777851,9830.099609375,9830.099609375,9830.099609375,9830.099609375,9830.099609375,9830.099609375,9419.099609375,9423.599609375,26750.099609375,9830.099609375,3004.5,4373.10009765625,7736.7001953125,5293.5,5679.60009765625,6837.60009765625,-9.0,1.5,3131.39990234375,3963.300048828125,-14.100000381469727,9830.099609375,6932.7001953125,9260.400390625,0.0
2.346044862901092,-9830.400390625,-9830.400390625,-9830.400390625,-9830.400390625,-9830.400390625,-9830.400390625,-9830.400390625,-9830.400390625,-9188.400390625,7922.39990234375,-9830.400390625,-9830.400390625,-9830.400390625,-9830.400390625,-9830.400390625,-9830.400390625,-8.399999618530273,0.6000000238418579,-9830.400390625,-9830.400390625,-13.800000190734863,3007.800048828125,-9830.400390625,-9830.400390625,0.0
2.346305026024332,7005.0,6429.0,6470.39990234375,6171.0,7171.2001953125,7542.2998046875,7366.5,7665.89990234375,1704.300048828125,-8386.7998046875,9630.2998046875,9830.099609375,7271.39990234375,7482.0,7412.7001953125,7297.7998046875,-8.699999809265137,1.2000000476837158,8832.599609375,9830.099609375,-14.399999618530273,-9830.400390625,8121.0,7074.0,0.0
2.346567113905574,512.0999755859375,86.69999694824219,-857.4000244140625,-198.0,-296.1000061035156,-146.6999969482422,378.29998779296875,155.39999389648438,8595.599609375,-9830.400390625,1800.5999755859375,528.9000244140625,2543.10009765625,3296.699951171875,2973.300048828125,2804.699951171875,-8.699999809265137,0.30000001192092896,2565.300048828125,1169.699951171875,-13.5,-9830.400390625,2321.39990234375,1828.199951171875,0.0
2.3468275978218154,-7023.2998046875,-6993.2998046875,-6692.10009765625,-7248.0,-7131.2998046875,-6932.7001953125,-6976.7998046875,-7259.7001953125,-23860.19921875,-5332.2001953125,-8354.7001953125,-9696.2998046875,-7338.89990234375,-7536.60009765625,-7177.7998046875,-7633.7998046875,-8.399999618530273,-1.2000000476837158,-7868.7001953125,-9830.400390625,-14.100000381469727,-315.6000061035156,-8252.099609375,-8271.599609375,0.0
2.3718077487549225,9830.099609375,9830.099609375,9830.099609375,9830.099609375,9830.099609375,9830.099609375,9830.099609375,9830.099609375,31122.0,9830.099609375,9830.099609375,9830.099609375,9830.099609375,9552.0,9830.099609375,9830.099609375,-8.699999809265137,1.2000000476837158,9830.099609375,9830.099609375,-14.699999809265137,9830.099609375,9797.099609375,9830.099609375,0.0
2.3721108981402024,-9830.400390625,-9830.400390625,-9820.7998046875,-9830.400390625,-9830.400390625,-9830.400390625,-9830.400390625,-9830.400390625,-26601.900390625,9584.400390625,-9830.400390625,-9830.400390625,-9830.400390625,-9830.400390625,-9830.400390625,-9830.400390625,-8.699999809265137,0.8999999761581421,-9830.400390625,-9830.400390625,-13.800000190734863,5292.0,-9830.400390625,-9830.400390625,0.0
2.37240025342647,4245.2998046875,4431.2998046875,3701.39990234375,4572.2998046875,4143.2998046875,3497.39990234375,3751.199951171875,2683.800048828125,29565.900390625,-6503.39990234375,3365.10009765625,5057.10009765625,6116.10009765625,5428.2001953125,4496.39990234375,4740.60009765625,-8.699999809265137,0.8999999761581421,3163.800048828125,6883.7998046875,-14.399999618530273,-9347.7001953125,6202.7998046875,7281.60009765625,0.0
2.3726860799897347,3896.699951171875,2402.39990234375,1906.800048828125,1530.9000244140625,3144.60009765625,4424.39990234375,4755.60009765625,5514.0,-23712.0,-9830.400390625,9080.7001953125,7022.7001953125,4583.7001953125,6708.89990234375,7358.10009765625,6502.2001953125,-9.0,0.8999999761581421,9375.599609375,5979.2998046875,-13.5,-9830.400390625,5182.2001953125,1835.0999755859375,0.0
2.372970302587998,-9571.7998046875,-8628.2998046875,-8729.400390625,-8426.099609375,-9786.599609375,-9830.400390625,-9830.400390625,-9830.400390625,7558.2001953125,-6436.7998046875,-9830.400390625,-9830.400390625,-8660.7001953125,-9830.400390625,-9830.400390625,-9830.400390625,-8.699999809265137,0.30000001192092896,-9830.400390625,-9830.400390625,-14.100000381469727,2337.60009765625,-9830.400390625,-8086.7998046875,0.0
2.3732641489762694,9830.099609375,9830.099609375,9830.099609375,9830.099609375,9830.099609375,9830.099609375,9830.099609375,9830.099609375,6817.2001953125,9830.099609375,3916.5,3912.300048828125,4384.5,704.7000122070312,3597.0,4180.5,-8.699999809265137,1.5,4126.2001953125,2094.0,-13.800000190734863,9830.099609375,2652.0,5364.89990234375,0.0
2.3735509379185347,-5257.5,-4743.0,-2060.39990234375,-3010.800048828125,-2671.800048828125,-2294.699951171875,-4077.0,-931.7999877929688,-13338.0,9830.099609375,120.5999984741211,3270.89990234375,-9830.400390625,-9830.400390625,-9830.400390625,-9830.400390625,-9.0,0.8999999761581421,-2460.89990234375,5169.89990234375,-14.100000381469727,6583.2001953125,-9830.400390625,-9088.5,0.0
2.3738348397237976,-9451.2001953125,-9830.400390625,-9830.400390625,-9830.400390625,-9830.400390625,-9830.400390625,-9830.400390625,-9830.400390625,28973.099609375,-3187.199951171875,-8097.89990234375,-8070.89990234375,1275.5999755859375,-636.0,-3547.5,-3215.39990234375,-8.399999618530273,0.30000001192092896,-7395.89990234375,-5051.7001953125,-13.800000190734863,-8805.0,1101.5999755859375,6437.7001953125,0.0
2.3741209870800617,6614.10009765625,2864.10009765625,1490.0999755859375,-435.8999938964844,5054.10009765625,7406.39990234375,7975.2001953125,8591.400390625,-36086.69921875,-9830.400390625,9830.099609375,9830.099609375,9214.2001953125,9830.099609375,9830.099609375,9830.099609375,-8.699999809265137,0.0,9830.099609375,9830.099609375,-13.800000190734863,-9830.400390625,9830.099609375,2729.699951171875,0.0
2.374405530471325,3525.0,4960.5,4224.89990234375,5318.39990234375,2563.800048828125,1740.0,2281.199951171875,863.7000122070312,29121.30078125,138.60000610351562,-2254.199951171875,-4884.2998046875,4705.7998046875,3142.800048828125,2818.199951171875,3045.89990234375,-8.699999809265137,1.5,-645.2999877929688,-5651.39990234375,-13.800000190734863,5840.7001953125,2394.0,5884.2001953125,0.0
2.374689432276588,-9830.400390625,-9830.400390625,-8838.0,-9830.400390625,-9769.5,-9400.5,-9830.400390625,-9011.400390625,-21711.30078125,9830.099609375,-9642.900390625,-7994.7001953125,-9830.400390625,-9830.400390625,-9830.400390625,-9830.400390625,-8.399999618530273,0.30000001192092896,-9830.400390625,-8725.2001953125,-14.100000381469727,9830.099609375,-9830.400390625,-9830.400390625,0.0
2.3749749380468517,9830.099609375,9830.099609375,9830.099609375,9830.099609375,9830.099609375,9830.099609375,9830.099609375,9830.099609375,17117.099609375,9830.099609375,9830.099609375,9830.099609375,9061.2001953125,8634.0,9199.7998046875,9304.5,-8.699999809265137,0.8999999761581421,9830.099609375,9830.099609375,-14.100000381469727,7175.10009765625,9830.099609375,9830.099609375,0.0
2.3752604438171163,-7863.89990234375,-7729.5,-8167.2001953125,-7488.89990234375,-7894.2001953125,-8289.900390625,-8231.400390625,-8184.60009765625,741.0,-4225.5,-9270.599609375,-8133.60009765625,-6081.89990234375,-6742.2001953125,-7714.5,-7229.10009765625,-8.699999809265137,0.30000001192092896,-9184.5,-6074.39990234375,-13.5,-8841.599609375,-6038.7001953125,-4747.5,0.0
2.3755340802463687,-222.89999389648438,-1167.0,-1734.5999755859375,-1875.300048828125,-1007.0999755859375,-337.20001220703125,177.89999389648438,-249.60000610351562,-14894.099609375,-9830.400390625,5270.10009765625,4050.300048828125,1566.5999755859375,3189.0,3234.300048828125,2287.800048828125,-8.399999618530273,0.8999999761581421,4982.39990234375,3987.60009765625,-14.100000381469727,-9830.400390625,2016.300048828125,-448.79998779296875,0.0
2.3757871859236035,7660.5,7768.5,7852.2001953125,7662.2998046875,7476.0,7637.7001953125,7588.7998046875,7958.10009765625,20007.0,297.6000061035156,5597.10009765625,4615.2001953125,7343.7001953125,6996.2998046875,7103.39990234375,7256.7001953125,-9.0,1.2000000476837158,6129.0,3861.0,-13.800000190734863,4093.800048828125,6662.39990234375,6959.10009765625,0.0
2.3760402916008374,-9830.400390625,-9830.400390625,-9830.400390625,-9830.400390625,-9830.400390625,-9830.400390625,-9830.400390625,-9830.400390625,-26601.900390625,9830.099609375,-9830.400390625,-9830.400390625,-9830.400390625,-9830.400390625,-9830.400390625,-9830.400390625,-8.399999618530273,0.8999999761581421,-9830.400390625,-9830.400390625,-13.800000190734863,9830.099609375,-9830.400390625,-9830.400390625,0.0
2.3764323006472,9830.099609375,9830.099609375,9830.099609375,9830.099609375,9830.099609375,9830.099609375,9830.099609375,9830.099609375,35419.80078125,9830.099609375,6818.39990234375,8270.7001953125,9165.2998046875,7919.7001953125,7885.5,8338.5,-8.699999809265137,1.5,6547.5,8082.2998046875,-14.100000381469727,7098.2998046875,9212.400390625,9830.099609375,0.0
2.3766889350474374,-5138.7001953125,-5651.7001953125,-5678.10009765625,-5689.5,-5064.2998046875,-4636.5,-4749.0,-3807.300048828125,-27194.69921875,-4071.0,1302.5999755859375,1965.0,-4672.2001953125,-3440.10009765625,-3465.60009765625,-3761.10009765625,-8.699999809265137,0.8999999761581421,163.8000030517578,3372.60009765625,-13.5,-8933.7001953125,-3444.60009765625,-5170.2001953125,0.0
2.4192645820468197,-3070.199951171875,-3361.5,-4698.0,-3840.89990234375,-4299.0,-4528.7998046875,-3618.0,-5446.5,18006.30078125,-9830.400390625,-5772.89990234375,-7934.10009765625,1085.4000244140625,1106.4000244140625,1.5,-301.5,-8.399999618530273,1.2000000476837158,-4113.0,-7873.5,-14.399999618530273,-9830.400390625,182.6999969482422,913.2000122070312,0.0
2.4198734471613825,9830.099609375,9731.400390625,9830.099609375,9351.0,9830.099609375,9830.099609375,9830.099609375,9830.099609375,-11040.900390625,-4047.0,9830.099609375,9830.099609375,7932.60009765625,8633.099609375,9484.5,9177.900390625,-8.399999618530273,1.2000000476837158,9830.099609375,9588.599609375,-14.100000381469727,936.2999877929688,8169.2998046875,5832.0,0.0
2.420455686456921,-9830.400390625,-9830.400390625,-8600.099609375,-9308.099609375,-9830.400390625,-9830.400390625,-9830.400390625,-9689.7001953125,-2074.800048828125,9830.099609375,-9651.599609375,-9830.400390625,-9830.400390625,-9830.400390625,-9830.400390625,-9830.400390625,-8.699999809265137,0.8999999761581421,-9624.2998046875,-9830.400390625,-13.800000190734863,9830.099609375,-9830.400390625,-9830.400390625,0.0
2.4210315098924537,1037.699951171875,4182.60009765625,6715.2001953125,7576.5,3962.10009765625,1392.5999755859375,85.80000305175781,180.89999389648438,22748.69921875,9830.099609375,-3808.5,-627.5999755859375,-2136.89990234375,-4488.60009765625,-5054.39990234375,-4212.2998046875,-8.699999809265137,1.2000000476837158,-4675.5,1111.5,-14.100000381469727,3564.89990234375,-610.2000122070312,5200.7998046875,0.0
2.421602521432982,7288.5,2544.0,1302.0,426.8999938964844,6152.39990234375,9137.400390625,9830.099609375,9830.099609375,-27268.80078125,-4703.7001953125,9830.099609375,9830.099609375,8853.599609375,9830.099609375,9830.099609375,9830.099609375,-8.699999809265137,0.6000000238418579,9830.099609375,9830.099609375,-14.100000381469727,-9830.400390625,9830.099609375,5079.2998046875,0.0
2.422174174559511,-7100.7001953125,-7138.2001953125,-9649.2001953125,-7560.0,-8801.400390625,-9526.7998046875,-8463.599609375,-9745.2001953125,30010.5,-9830.400390625,-8478.599609375,-8789.099609375,5210.7001953125,4038.300048828125,1078.5,994.2000122070312,-8.699999809265137,0.8999999761581421,-7258.7998046875,-6968.39990234375,-13.800000190734863,-9830.400390625,1917.0,6011.39990234375,0.0
2.4227435821350376,-1972.5,-3513.300048828125,-2369.10009765625,-4865.39990234375,-2512.5,-473.3999938964844,-419.70001220703125,241.8000030517578,-33196.80078125,-5174.7001953125,4594.5,1284.300048828125,-3825.0,263.3999938964844,2429.10009765625,-576.5999755859375,-8.100000381469727,0.8999999761581421,4941.89990234375,-2616.89990234375,-14.100000381469727,131.10000610351562,-5716.2001953125,-9830.400390625,0.0
2.4233117065385636,9830.099609375,9830.099609375,9830.099609375,9830.099609375,9830.099609375,9830.099609375,9463.2001953125,9455.400390625,26231.400390625,9830.099609375,2962.5,4391.39990234375,7623.89990234375,5150.10009765625,5619.60009765625,6780.60009765625,-9.0,1.5,3104.10009765625,4055.39990234375,-14.100000381469727,9830.099609375,6836.10009765625,9160.7998046875,0.0
2.4238795101490886,-9830.400390625,-9830.400390625,-9830.400390625,-9830.400390625,-9830.400390625,-9830.400390625,-9830.400390625,-9830.400390625,-8299.2001953125,7784.39990234375,-9830.400390625,-9830.400390625,-9830.400390625,-9830.400390625,-9830.400390625,-9830.400390625,-8.399999618530273,0.6000000238418579,-9830.400390625,-9830.400390625,-13.800000190734863,2892.60009765625,-9830.400390625,-9830.400390625,0.0
2.4662248277742576,6893.39990234375,6328.5,6344.39990234375,6048.0,7063.2001953125,7414.5,7268.7001953125,7559.39990234375,815.0999755859375,-8450.099609375,9604.7998046875,9830.099609375,7194.0,7430.39990234375,7376.7001953125,7230.89990234375,-9.0,0.6000000238418579,8846.400390625,9830.099609375,-14.100000381469727,-9830.400390625,8069.10009765625,6937.7998046875,0.0
2.466761193670754,648.9000244140625,245.6999969482422,-723.0,-62.099998474121094,-153.3000030517578,-20.700000762939453,518.0999755859375,252.3000030517578,9484.7998046875,-9830.400390625,1813.5,543.0,2670.0,3416.39990234375,3106.800048828125,2928.89990234375,-9.0,0.8999999761581421,2589.0,1155.300048828125,-13.5,-9830.400390625,2443.800048828125,1968.0,0.0
2.4672751040572294,-7129.5,-7114.2001953125,-6782.10009765625,-7356.89990234375,-7255.5,-7055.39990234375,-7084.5,-7344.60009765625,-24378.900390625,-5194.2001953125,-8478.0,-9752.400390625,-7513.2001953125,-7695.89990234375,-7319.10009765625,-7792.7998046875,-8.699999809265137,0.30000001192092896,-7978.2001953125,-9830.400390625,-14.100000381469727,-158.10000610351562,-8407.7998046875,-8434.7998046875,0.0
2.467785164927701,9830.099609375,9830.099609375,9830.099609375,9830.099609375,9830.099609375,9830.099609375,9830.099609375,9830.099609375,31344.30078125,9830.099609375,9830.099609375,9830.099609375,9830.099609375,9579.599609375,9830.099609375,9830.099609375,-8.699999809265137,0.30000001192092896,9830.099609375,9830.099609375,-14.100000381469727,9830.099609375,9816.599609375,9830.099609375,0.0
2.4682958673841737,-9830.400390625,-9830.400390625,-9777.900390625,-9830.400390625,-9830.400390625,-9830.400390625,-9830.400390625,-9829.2001953125,-26824.19921875,9519.900390625,-9830.400390625,-9830.400390625,-9830.400390625,-9830.400390625,-9830.400390625,-9830.400390625,-8.699999809265137,0.8999999761581421,-9830.400390625,-9830.400390625,-13.800000190734863,5178.89990234375,-9830.400390625,-9830.400390625,0.0
2.4688017579456414,4089.300048828125,4234.2001953125,3513.89990234375,4386.60009765625,3984.300048828125,3372.89990234375,3667.800048828125,2573.10009765625,29047.19921875,-6555.0,3314.39990234375,5042.39990234375,5993.10009765625,5324.7001953125,4431.0,4670.7001953125,-8.699999809265137,0.8999999761581421,3152.699951171875,6861.60009765625,-14.399999618530273,-9399.900390625,6092.7001953125,7089.60009765625,0.0
2.46930764850711,4037.699951171875,2583.0,2042.4000244140625,1672.5,3208.800048828125,4528.7998046875,4836.60009765625,5608.7998046875,-23267.400390625,-9830.400390625,9088.7998046875,7000.5,4695.2998046875,6733.5,7389.60009765625,6550.5,-8.699999809265137,1.2000000476837158,9380.400390625,5957.7001953125,-13.800000190734863,-9830.400390625,5283.2998046875,2025.9000244140625,0.0
2.4698112935175756,-9630.599609375,-8730.900390625,-8820.900390625,-8527.2001953125,-9830.400390625,-9830.400390625,-9830.400390625,-9830.400390625,6743.10009765625,-6248.39990234375,-9830.400390625,-9830.400390625,-8807.099609375,-9830.400390625,-9830.400390625,-9830.400390625,-8.699999809265137,0.0,-9830.400390625,-9830.400390625,-13.800000190734863,2654.699951171875,-9830.400390625,-8291.7001953125,0.0
2.470314938528041,9830.099609375,9830.099609375,9830.099609375,9830.099609375,9830.099609375,9830.099609375,9830.099609375,9830.099609375,7854.60009765625,9830.099609375,3970.199951171875,3994.800048828125,4744.5,942.5999755859375,3905.39990234375,4515.2998046875,-8.100000381469727,2.0999999046325684,4230.0,2225.699951171875,-14.100000381469727,9830.099609375,3132.0,5869.2001953125,0.0
2.47082179146851,-5413.7998046875,-5005.5,-2304.0,-3432.89990234375,-2888.10009765625,-2446.199951171875,-4245.60009765625,-1052.699951171875,-14079.0,9830.099609375,121.80000305175781,3231.60009765625,-9830.400390625,-9830.400390625,-9830.400390625,-9830.400390625,-9.0,0.30000001192092896,-2463.89990234375,5165.10009765625,-13.800000190734863,6508.7998046875,-9830.400390625,-9327.900390625,0.0
2.4713247948929755,-9238.7998046875,-9830.400390625,-9830.400390625,-9827.400390625,-9830.400390625,-9830.400390625,-9692.099609375,-9830.400390625,29565.900390625,-3285.300048828125,-8098.2001953125,-8093.39990234375,1601.699951171875,-318.8999938964844,-3355.800048828125,-2930.10009765625,-8.100000381469727,0.6000000238418579,-7300.2001953125,-5156.39990234375,-13.800000190734863,-8914.5,1498.800048828125,6737.7001953125,0.0
2.471830043868443,6719.39990234375,2909.39990234375,1434.5999755859375,-345.29998779296875,5137.2001953125,7502.39990234375,8079.0,8681.7001953125,-36012.6015625,-9830.400390625,9830.099609375,9830.099609375,9357.0,9830.099609375,9830.099609375,9830.099609375,-9.0,0.6000000238418579,9830.099609375,9830.099609375,-14.100000381469727,-9830.400390625,9830.099609375,2721.60009765625,0.0
2.4723862989309575,3459.0,4978.5,4227.2998046875,5312.39990234375,2521.800048828125,1650.5999755859375,2174.39990234375,751.2000122070312,29121.30078125,385.5,-2331.300048828125,-4964.39990234375,4636.5,3071.699951171875,2704.800048828125,2943.60009765625,-8.699999809265137,1.2000000476837158,-752.4000244140625,-5756.10009765625,-13.800000190734863,5910.2998046875,2312.10009765625,5841.0,0.0
2.4728973221804305,-9830.400390625,-9830.400390625,-8844.900390625,-9830.400390625,-9769.7998046875,-9441.0,-9830.400390625,-9030.0,-20822.099609375,9830.099609375,-9653.7001953125,-7965.0,-9830.400390625,-9830.400390625,-9830.400390625,-9830.400390625,-8.399999618530273,0.6000000238418579,-9830.400390625,-8691.2998046875,-14.100000381469727,9830.099609375,-9830.400390625,-9830.400390625,0.0
2.4734150820829086,9830.099609375,9830.099609375,9830.099609375,9830.099609375,9830.099609375,9830.099609375,9830.099609375,9830.099609375,16524.30078125,9830.099609375,9830.099609375,9830.099609375,9015.0,8635.7998046875,9162.0,9291.0,-8.399999618530273,1.5,9830.099609375,9830.099609375,-14.399999618530273,7072.7998046875,9830.099609375,9830.099609375,0.0
2.473922897402379,-7771.5,-7623.60009765625,-8072.10009765625,-7379.7001953125,-7787.7001953125,-8190.2998046875,-8155.5,-8094.60009765625,1482.0,-4384.7998046875,-9195.599609375,-8055.2998046875,-5928.0,-6584.39990234375,-7608.60009765625,-7061.7001953125,-8.699999809265137,0.8999999761581421,-9111.2998046875,-5933.39990234375,-13.5,-8929.7998046875,-5843.39990234375,-4574.7001953125,0.0
2.474422692896841,-379.79998779296875,-1303.5,-1861.800048828125,-2013.9000244140625,-1147.199951171875,-497.3999938964844,40.79999923706055,-346.79998779296875,-15857.400390625,-9830.400390625,5195.10009765625,4023.89990234375,1410.9000244140625,3073.800048828125,3108.300048828125,2162.39990234375,-8.100000381469727,1.2000000476837158,4927.7998046875,3853.800048828125,-14.100000381469727,-9830.400390625,1848.300048828125,-664.2000122070312,0.0
2.4749269794933078,7742.10009765625,7858.7998046875,7976.7001953125,7769.7001953125,7574.10009765625,7717.7998046875,7683.2998046875,8039.7001953125,20896.19921875,373.20001220703125,5598.2998046875,4662.0,7413.0,7059.60009765625,7147.2001953125,7336.2001953125,-9.0,1.5,6142.2001953125,3915.300048828125,-14.399999618530273,4153.5,6769.7998046875,7058.39990234375,0.0
2.512529051816089,-9830.400390625,-9830.400390625,-9830.400390625,-9830.400390625,-9830.400390625,-9830.400390625,-9830.400390625,-9830.400390625,-26750.099609375,9830.099609375,-9830.400390625,-9830.400390625,-9830.400390625,-9830.400390625,-9830.400390625,-9830.400390625,-8.699999809265137,0.30000001192092896,-9830.400390625,-9830.400390625,-13.800000190734863,9830.099609375,-9830.400390625,-9830.400390625,0.0
2.51323287165874,9830.099609375,9830.099609375,9830.099609375,9830.099609375,9830.099609375,9830.099609375,9830.099609375,9830.099609375,35345.69921875,9830.099609375,6770.10009765625,8301.2998046875,9120.0,7876.5,7819.7998046875,8295.599609375,-8.699999809265137,1.2000000476837158,6443.10009765625,8103.60009765625,-14.399999618530273,6919.7998046875,9165.2998046875,9830.099609375,0.0
2.5138969131693543,-5036.7001953125,-5523.0,-5566.7998046875,-5576.10009765625,-4983.0,-4558.2001953125,-4656.2998046875,-3696.89990234375,-26898.30078125,-4195.5,1372.199951171875,1979.699951171875,-4497.0,-3269.10009765625,-3325.800048828125,-3581.10009765625,-9.0,0.8999999761581421,281.70001220703125,3387.300048828125,-13.5,-9060.599609375,-3256.5,-5019.2998046875,0.0
2.514555821991964,-3146.699951171875,-3426.0,-4740.60009765625,-3887.699951171875,-4249.7998046875,-4577.39990234375,-3649.800048828125,-5467.7998046875,17265.30078125,-9830.400390625,-5839.2001953125,-7937.10009765625,905.7000122070312,962.0999755859375,-153.89999389648438,-454.79998779296875,-8.399999618530273,0.30000001192092896,-4180.5,-7879.5,-13.800000190734863,-9830.400390625,14.399999618530273,659.0999755859375,0.0
2.51516725345053,9830.099609375,9806.7001953125,9830.099609375,9420.900390625,9830.099609375,9830.099609375,9830.099609375,9830.099609375,-10299.900390625,-3918.60009765625,9830.099609375,9830.099609375,8040.0,8688.2998046875,9505.2001953125,9248.7001953125,-8.699999809265137,1.5,9830.099609375,9612.599609375,-13.800000190734863,1064.699951171875,8301.2998046875,6038.10009765625,0.0
2.5157719482560887,-9830.400390625,-9830.400390625,-8827.2001953125,-9565.7998046875,-9830.400390625,-9830.400390625,-9830.400390625,-9705.2998046875,-3260.39990234375,9830.099609375,-9664.5,-9830.400390625,-9830.400390625,-9830.400390625,-9830.400390625,-9830.400390625,-8.699999809265137,0.6000000238418579,-9637.7998046875,-9830.400390625,-13.800000190734863,9830.099609375,-9830.400390625,-9830.400390625,0.0
2.5163763222686484,1359.0,4431.89990234375,6804.2998046875,7616.7001953125,3823.5,1637.4000244140625,292.20001220703125,445.5,23119.19921875,9758.400390625,-3636.60009765625,-536.0999755859375,-1677.5999755859375,-4129.2001953125,-4778.7001953125,-3808.199951171875,-8.699999809265137,0.8999999761581421,-4493.10009765625,1204.199951171875,-14.100000381469727,3411.0,-98.0999984741211,5719.5,0.0
2.5169839042112105,7145.10009765625,2341.5,1027.5,53.400001525878906,5583.60009765625,8919.0,9733.2001953125,9830.099609375,-28158.0,-4979.7001953125,9830.099609375,9830.099609375,8941.7998046875,9830.099609375,9830.099609375,9830.099609375,-8.699999809265137,1.5,9830.099609375,9830.099609375,-13.800000190734863,-9830.400390625,9830.099609375,5032.7998046875,0.0
2.5175885990167695,-7252.5,-7353.60009765625,-9830.400390625,-7810.5,-9094.2001953125,-9697.2001953125,-8591.7001953125,-9830.400390625,29862.30078125,-9830.400390625,-8387.400390625,-8806.5,5444.39990234375,4234.7998046875,1180.5,1285.199951171875,-8.699999809265137,0.0,-7122.0,-7017.2998046875,-13.800000190734863,-9830.400390625,2142.60009765625,6228.89990234375,0.0
2.546534072226544,-1879.800048828125,-3433.5,-2302.5,-4860.2998046875,-2574.0,-364.5,-334.5,278.1000061035156,-32900.3984375,-5045.10009765625,4592.10009765625,1198.800048828125,-3695.10009765625,381.6000061035156,2464.199951171875,-363.8999938964844,-8.699999809265137,0.8999999761581421,5017.2001953125,-2727.89990234375,-14.399999618530273,266.70001220703125,-5656.2001953125,-9830.400390625,0.0
2.5474630887554035,9830.099609375,9830.099609375,9830.099609375,9830.099609375,9830.099609375,9830.099609375,9462.599609375,9447.599609375,25712.69921875,9830.099609375,2911.199951171875,4421.7001953125,7505.7001953125,4993.5,5522.39990234375,6702.2998046875,-9.0,1.2000000476837158,2982.300048828125,3902.39990234375,-13.800000190734863,9830.099609375,6799.7998046875,9185.400390625,0.0
2.548440865820308,-9830.400390625,-9830.400390625,-9830.400390625,-9830.400390625,-9830.400390625,-9830.400390625,-9830.400390625,-9830.400390625,-7410.0,7571.10009765625,-9830.400390625,-9830.400390625,-9830.400390625,-9830.400390625,-9830.400390625,-9830.400390625,-8.100000381469727,0.30000001192092896,-9830.400390625,-9830.400390625,-13.800000190734863,2709.89990234375,-9830.400390625,-9830.400390625,0.0
2.5493888091361843,6820.5,6231.2998046875,6218.7001953125,5925.89990234375,7002.2998046875,7349.39990234375,7215.2998046875,7498.7998046875,74.0999984741211,-8576.400390625,9601.5,9830.099609375,7111.2001953125,7372.7998046875,7335.60009765625,7201.5,-8.699999809265137,0.6000000238418579,8819.7001953125,9830.099609375,-13.800000190734863,-9830.400390625,8040.60009765625,6832.5,0.0
2.5503855129881066,745.7999877929688,380.70001220703125,-627.5999755859375,95.4000015258789,-39.0,84.30000305175781,645.9000244140625,353.70001220703125,10225.7998046875,-9830.400390625,1878.0,568.2000122070312,2836.5,3529.5,3205.5,3040.199951171875,-8.399999618530273,1.5,2667.300048828125,1187.0999755859375,-13.800000190734863,-9830.400390625,2561.39990234375,2138.699951171875,0.0
2.5513446840589937,-7262.39990234375,-7220.7001953125,-6884.7001953125,-7464.60009765625,-7318.7998046875,-7126.2001953125,-7185.0,-7398.2998046875,-25194.0,-5058.89990234375,-8568.900390625,-9802.2001953125,-7682.7001953125,-7886.10009765625,-7478.7001953125,-7926.89990234375,-8.399999618530273,0.6000000238418579,-8108.39990234375,-9830.400390625,-13.800000190734863,-12.0,-8561.7001953125,-8581.2001953125,0.0
2.5522676055208473,9830.099609375,9830.099609375,9830.099609375,9830.099609375,9830.099609375,9830.099609375,9830.099609375,9830.099609375,31640.69921875,9830.099609375,9830.099609375,9830.099609375,9830.099609375,9561.0,9830.099609375,9830.099609375,-9.0,1.5,9830.099609375,9830.099609375,-13.800000190734863,9830.099609375,9828.0,9830.099609375,0.0
2.55323255086574,-9830.400390625,-9830.400390625,-9699.599609375,-9830.400390625,-9830.400390625,-9830.400390625,-9830.400390625,-9773.400390625,-26898.30078125,9461.099609375,-9830.400390625,-9830.400390625,-9830.400390625,-9830.400390625,-9830.400390625,-9830.400390625,-9.0,1.2000000476837158,-9830.400390625,-9830.400390625,-13.800000190734863,5088.2998046875,-9830.400390625,-9830.400390625,0.0
2.554191080350627,3999.89990234375,4161.2998046875,3388.800048828125,4266.0,3925.800048828125,3303.0,3585.0,2535.89990234375,28528.5,-6615.60009765625,3390.0,5031.0,5873.39990234375,5291.7001953125,4386.2998046875,4606.2001953125,-8.399999618530273,1.5,3186.0,6829.5,-14.399999618530273,-9451.7998046875,6026.10009765625,6951.89990234375,0.0
2.592064222758659,4123.2001953125,2722.800048828125,2227.800048828125,1871.0999755859375,3369.60009765625,4609.5,4930.7998046875,5645.7001953125,-22526.400390625,-9830.400390625,9007.7998046875,6988.2001953125,4800.60009765625,6776.7001953125,7388.39990234375,6638.39990234375,-9.0,1.2000000476837158,9321.599609375,5964.60009765625,-13.5,-9830.400390625,5324.39990234375,2199.60009765625,0.0
2.5931177069716336,-9754.7998046875,-8824.7998046875,-8893.7998046875,-8657.099609375,-9830.400390625,-9830.400390625,-9830.400390625,-9830.400390625,5853.89990234375,-6112.7998046875,-9830.400390625,-9830.400390625,-8961.2998046875,-9830.400390625,-9830.400390625,-9830.400390625,-8.100000381469727,0.6000000238418579,-9830.400390625,-9830.400390625,-14.100000381469727,2906.39990234375,-9830.400390625,-8479.7998046875,0.0
2.5942468983326785,9830.099609375,9830.099609375,9830.099609375,9830.099609375,9830.099609375,9830.099609375,9830.099609375,9830.099609375,8669.7001953125,9830.099609375,3957.0,4035.60009765625,5020.7998046875,1246.800048828125,3967.5,4858.7998046875,-8.399999618530273,1.2000000476837158,4195.7998046875,2348.10009765625,-14.100000381469727,9830.099609375,3339.60009765625,6351.0,0.0
2.595355558941704,-5638.5,-5221.7998046875,-2643.0,-3896.39990234375,-3091.199951171875,-2633.699951171875,-4360.2001953125,-1245.0,-14820.0,9765.900390625,66.9000015258789,3206.699951171875,-9830.400390625,-9830.400390625,-9830.400390625,-9830.400390625,-8.699999809265137,1.2000000476837158,-2518.800048828125,5130.0,-13.800000190734863,6439.7998046875,-9830.400390625,-9565.2001953125,0.0
2.5964305362856983,-9020.400390625,-9796.5,-9830.400390625,-9633.2998046875,-9830.400390625,-9830.400390625,-9475.2001953125,-9830.400390625,29788.19921875,-3368.699951171875,-8089.2001953125,-8061.2998046875,1839.300048828125,-103.5,-3155.10009765625,-2622.0,-8.399999618530273,0.6000000238418579,-7274.7001953125,-4940.39990234375,-14.100000381469727,-9016.2001953125,1577.4000244140625,6929.39990234375,0.0
2.597576088089758,6842.39990234375,3016.199951171875,1425.0,-225.0,5344.5,7711.2001953125,8292.599609375,8853.2998046875,-36309.0,-9830.400390625,9830.099609375,9830.099609375,9503.099609375,9830.099609375,9830.099609375,9830.099609375,-8.699999809265137,0.6000000238418579,9830.099609375,9830.099609375,-13.800000190734863,-9830.400390625,9830.099609375,2712.0,0.0
2.5985994177607044,3414.0,4947.2998046875,4257.60009765625,5316.0,2483.699951171875,1554.5999755859375,2125.5,717.2999877929688,28528.5,783.5999755859375,-2422.5,-5070.0,4593.89990234375,3005.699951171875,2628.60009765625,2891.39990234375,-8.699999809265137,1.5,-822.2999877929688,-5854.7998046875,-13.800000190734863,6079.2001953125,2113.5,5670.89990234375,0.0
2.5994905807155284,-9830.400390625,-9830.400390625,-8841.0,-9830.400390625,-9776.099609375,-9437.400390625,-9830.400390625,-9025.2001953125,-20451.599609375,9830.099609375,-9609.900390625,-7926.60009765625,-9830.400390625,-9830.400390625,-9830.400390625,-9830.400390625,-8.399999618530273,0.0,-9830.400390625,-8630.400390625,-14.399999618530273,9830.099609375,-9830.400390625,-9830.400390625,0.0
2.600306998901284,9830.099609375,9830.099609375,9830.099609375,9830.099609375,9830.099609375,9830.099609375,9830.099609375,9830.099609375,15635.099609375,9830.099609375,9830.099609375,9830.099609375,8965.5,8625.2998046875,9148.5,9297.2998046875,-8.699999809265137,-0.30000001192092896,9830.099609375,9830.099609375,-14.100000381469727,6966.0,9801.0,9828.0,0.0
2.601094866510013,-7655.7001953125,-7525.2001953125,-7977.0,-7263.89990234375,-7659.0,-8089.5,-8024.39990234375,-8031.89990234375,2519.39990234375,-4595.10009765625,-9194.400390625,-7977.2998046875,-5724.60009765625,-6357.89990234375,-7461.2998046875,-6899.10009765625,-8.699999809265137,0.0,-9047.7001953125,-5858.7001953125,-13.5,-9031.7998046875,-5672.7001953125,-4328.10009765625,0.0
2.6018756766727353,-488.70001220703125,-1427.699951171875,-1988.699951171875,-2138.39990234375,-1259.0999755859375,-561.0,-59.70000076293945,-449.70001220703125,-16376.099609375,-9830.400390625,5168.7001953125,3939.60009765625,1316.699951171875,2998.5,3068.699951171875,2081.699951171875,-8.699999809265137,0.8999999761581421,4931.10009765625,3795.0,-14.100000381469727,-9830.400390625,1743.5999755859375,-824.7000122070312,0.0
2.6026449382874466,7866.89990234375,7971.89990234375,8102.10009765625,7903.5,7711.5,7836.2998046875,7771.5,8104.7998046875,21489.0,396.0,5634.60009765625,4712.7001953125,7525.5,7138.7998046875,7212.0,7409.39990234375,-9.0,1.5,6159.2998046875,3967.5,-14.100000381469727,4230.2998046875,6849.2998046875,7213.5,0.0
2.6033583819201063,-9830.400390625,-9830.400390625,-9830.400390625,-9830.400390625,-9830.400390625,-9830.400390625,-9830.400390625,-9830.400390625,-26898.30078125,9830.099609375,-9830.400390625,-9830.400390625,-9830.400390625,-9830.400390625,-9830.400390625,-9830.400390625,-8.699999809265137,0.6000000238418579,-9830.400390625,-9830.400390625,-13.800000190734863,9830.099609375,-9830.400390625,-9830.400390625,0.0
2.6041099999198014,9830.099609375,9830.099609375,9830.099609375,9830.099609375,9830.099609375,9830.099609375,9830.099609375,9830.099609375,35049.30078125,9830.099609375,6806.10009765625,8325.599609375,9043.5,7829.7001953125,7746.89990234375,8228.7001953125,-8.399999618530273,0.6000000238418579,6517.7998046875,8116.7998046875,-14.100000381469727,6744.89990234375,9097.2001953125,9830.099609375,0.0
2.606943885284423,-4864.2001953125,-5391.60009765625,-5436.0,-5445.0,-4831.5,-4370.39990234375,-4507.5,-3601.800048828125,-26601.900390625,-4301.10009765625,1409.4000244140625,2023.199951171875,-4308.0,-3070.5,-3181.800048828125,-3434.699951171875,-8.699999809265137,0.8999999761581421,337.20001220703125,3388.800048828125,-13.5,-9194.400390625,-3128.10009765625,-4842.0,0.0
2.6076817091851057,-3286.199951171875,-3597.0,-4839.2998046875,-4068.89990234375,-4425.0,-4656.60009765625,-3772.800048828125,-5505.89990234375,16376.099609375,-9830.400390625,-5782.7998046875,-7996.7998046875,696.5999755859375,780.5999755859375,-316.20001220703125,-622.5,-8.399999618530273,0.8999999761581421,-4119.0,-8007.2998046875,-14.399999618530273,-9830.400390625,-212.39999389648438,392.70001220703125,0.0
2.608427552910795,9830.099609375,9830.099609375,9830.099609375,9542.7001953125,9830.099609375,9830.099609375,9830.099609375,9830.099609375,-9336.599609375,-3858.60009765625,9830.099609375,9830.099609375,8166.89990234375,8789.099609375,9559.2001953125,9313.2001953125,-9.0,1.5,9830.099609375,9517.2001953125,-14.100000381469727,1144.199951171875,8382.2998046875,6267.2998046875,0.0
2.609172113464484,-9830.400390625,-9830.400390625,-8909.099609375,-9612.2998046875,-9830.400390625,-9830.400390625,-9830.400390625,-9758.400390625,-3927.300048828125,9830.099609375,-9732.900390625,-9830.400390625,-9830.400390625,-9830.400390625,-9830.400390625,-9830.400390625,-8.699999809265137,0.30000001192092896,-9700.2001953125,-9830.400390625,-13.800000190734863,9830.099609375,-9830.400390625,-9830.400390625,0.0
2.61049763014171,1765.800048828125,4758.60009765625,7219.2001953125,8137.5,4542.0,1956.300048828125,614.4000244140625,594.0,24082.5,9601.7998046875,-3648.0,-453.6000061035156,-1174.800048828125,-3704.10009765625,-4515.89990234375,-3430.199951171875,-8.399999618530273,0.6000000238418579,-4483.7998046875,1339.5,-14.100000381469727,3020.10009765625,250.1999969482422,6326.10009765625,0.0
2.611244436246401,7042.7998046875,2236.800048828125,957.0,50.099998474121094,5826.60009765625,8840.7001953125,9632.099609375,9766.5,-28380.30078125,-5365.5,9830.099609375,9830.099609375,9001.7998046875,9830.099609375,9830.099609375,9830.099609375,-9.0,0.6000000238418579,9830.099609375,9830.099609375,-14.100000381469727,-9830.400390625,9830.099609375,4876.2001953125,0.0
2.6119649373250677,-7379.10009765625,-7503.2998046875,-9830.400390625,-7914.2998046875,-9151.2001953125,-9745.2001953125,-8731.7998046875,-9830.400390625,30084.599609375,-9830.400390625,-8475.900390625,-8879.099609375,5606.10009765625,4398.0,1159.199951171875,1296.0,-8.699999809265137,1.2000000476837158,-7311.2998046875,-7035.89990234375,-13.800000190734863,-9830.400390625,2179.800048828125,6335.10009765625,0.0
2.6127005156747476,-1779.300048828125,-3381.89990234375,-2165.10009765625,-4745.7001953125,-2375.10009765625,-281.70001220703125,-269.3999938964844,402.6000061035156,-32455.80078125,-4885.2001953125,4533.89990234375,1179.300048828125,-3778.5,324.0,2501.39990234375,-426.6000061035156,-8.399999618530273,1.2000000476837158,4944.0,-2667.60009765625,-13.800000190734863,448.5,-5968.5,-9830.400390625,0.0
2.61342647023442,9830.099609375,9830.099609375,9830.099609375,9830.099609375,9830.099609375,9830.099609375,9440.400390625,9439.2001953125,25268.099609375,9830.099609375,2930.10009765625,4347.89990234375,7311.0,4822.7998046875,5384.39990234375,6590.39990234375,-8.699999809265137,0.8999999761581421,2974.800048828125,4006.800048828125,-13.800000190734863,9830.099609375,6551.7001953125,9081.900390625,0.0
2.614152104001091,-9830.400390625,-9830.400390625,-9830.400390625,-9830.400390625,-9830.400390625,-9830.400390625,-9830.400390625,-9830.400390625,-6520.7998046875,7565.10009765625,-9830.400390625,-9830.400390625,-9830.400390625,-9830.400390625,-9830.400390625,-9830.400390625,-8.699999809265137,0.6000000238418579,-9830.400390625,-9830.400390625,-13.800000190734863,2671.800048828125,-9830.400390625,-9830.400390625,0.0
2.614892173452775,6703.5,6043.2001953125,6069.60009765625,5737.7998046875,6826.5,7261.2001953125,7108.7998046875,7406.10009765625,-1111.5,-8536.7998046875,9612.599609375,9830.099609375,7018.7998046875,7321.2001953125,7270.7998046875,7117.7998046875,-8.399999618530273,0.6000000238418579,8840.099609375,9830.099609375,-14.100000381469727,-9830.400390625,7942.2001953125,6696.60009765625,0.0
2.615630318146458,904.2000122070312,512.4000244140625,-487.20001220703125,229.5,102.0,200.39999389648438,764.4000244140625,468.6000061035156,10966.7998046875,-9830.400390625,1899.0,588.5999755859375,2977.199951171875,3660.60009765625,3307.199951171875,3163.199951171875,-9.0,0.8999999761581421,2709.0,1190.0999755859375,-13.800000190734863,-9830.400390625,2667.89990234375,2291.10009765625,0.0
2.6163386290911133,-7351.2001953125,-7344.89990234375,-6977.39990234375,-7580.39990234375,-7447.7998046875,-7228.5,-7291.5,-7477.7998046875,-25786.80078125,-4930.5,-8590.5,-9830.400390625,-7808.10009765625,-8003.10009765625,-7611.89990234375,-8069.7001953125,-8.399999618530273,1.5,-8142.60009765625,-9830.400390625,-14.100000381469727,186.89999389648438,-8697.900390625,-8712.900390625,0.0
2.6860257757175736,9830.099609375,9830.099609375,9830.099609375,9830.099609375,9830.099609375,9830.099609375,9830.099609375,9830.099609375,31863.0,9830.099609375,9830.099609375,9830.099609375,9830.099609375,9581.7001953125,9830.099609375,9830.099609375,-8.699999809265137,1.2000000476837158,9830.099609375,9830.099609375,-13.800000190734863,9830.099609375,9820.2001953125,9830.099609375,0.0
2.687083751032552,-9830.400390625,-9830.400390625,-9631.2001953125,-9822.599609375,-9830.400390625,-9830.400390625,-9830.400390625,-9752.7001953125,-26601.900390625,9379.7998046875,-9830.400390625,-9830.400390625,-9830.400390625,-9830.400390625,-9830.400390625,-9830.400390625,-8.699999809265137,0.6000000238418579,-9830.400390625,-9830.400390625,-13.800000190734863,4996.5,-9830.400390625,-9830.400390625,0.0
2.688007634873407,3893.10009765625,3984.89990234375,3274.199951171875,4083.60009765625,3756.0,3201.89990234375,3476.39990234375,2436.60009765625,28158.0,-6698.10009765625,3383.699951171875,5048.10009765625,5789.7001953125,5246.39990234375,4344.2998046875,4517.7001953125,-8.399999618530273,0.8999999761581421,3183.60009765625,6784.5,-13.800000190734863,-9504.0,5894.7001953125,6819.89990234375,0.0
2.688913875099245,4248.0,2876.10009765625,2384.699951171875,2010.5999755859375,3466.5,4691.7001953125,5000.7001953125,5724.0,-21785.400390625,-9830.400390625,9006.599609375,6958.7998046875,4892.7001953125,6813.89990234375,7420.5,6684.89990234375,-8.699999809265137,0.8999999761581421,9307.2001953125,5919.2998046875,-13.5,-9830.400390625,5405.10009765625,2380.5,0.0
2.6898342302170963,-9797.7001953125,-8920.5,-8953.5,-8769.599609375,-9830.400390625,-9830.400390625,-9830.400390625,-9830.400390625,4964.7001953125,-5956.5,-9830.400390625,-9830.400390625,-9059.7001953125,-9830.400390625,-9830.400390625,-9830.400390625,-8.699999809265137,0.30000001192092896,-9830.400390625,-9830.400390625,-13.800000190734863,3194.39990234375,-9830.400390625,-8642.7001953125,0.0
2.690783456704975,9830.099609375,9830.099609375,9830.099609375,9830.099609375,9830.099609375,9830.099609375,9830.099609375,9830.099609375,9633.0,9830.099609375,3975.89990234375,4101.2998046875,5393.39990234375,1408.800048828125,4197.89990234375,5074.2001953125,-8.699999809265137,1.5,4222.5,2458.5,-14.100000381469727,9830.099609375,3637.199951171875,6719.39990234375,0.0
2.6916316333977592,-5758.2001953125,-5508.89990234375,-2920.5,-4436.7001953125,-3440.10009765625,-2818.199951171875,-4534.7998046875,-1391.4000244140625,-15709.2001953125,9699.0,98.0999984741211,3174.300048828125,-9830.400390625,-9830.400390625,-9830.400390625,-9830.400390625,-8.699999809265137,1.5,-2484.0,5068.2001953125,-13.800000190734863,6359.7001953125,-9830.400390625,-9778.7998046875,0.0
2.6926280164566805,-8763.2998046875,-9515.400390625,-9830.400390625,-9631.5,-9830.400390625,-9830.400390625,-9336.0,-9830.400390625,30084.599609375,-3423.300048828125,-8030.39990234375,-8025.0,2176.800048828125,97.80000305175781,-2952.300048828125,-2376.300048828125,-8.399999618530273,1.2000000476837158,-7252.5,-4962.0,-14.100000381469727,-9124.7998046875,1784.0999755859375,7164.60009765625,0.0
2.693669310535644,7072.7998046875,3171.0,1555.800048828125,-139.1999969482422,5380.2001953125,7882.2001953125,8410.2001953125,8913.0,-36309.0,-9830.400390625,9830.099609375,9830.099609375,9684.900390625,9830.099609375,9830.099609375,9830.099609375,-8.699999809265137,1.2000000476837158,9830.099609375,9830.099609375,-13.800000190734863,-9830.400390625,9830.099609375,2778.0,0.0
2.694697772894595,3357.60009765625,4952.10009765625,4233.60009765625,5270.7001953125,2336.39990234375,1427.0999755859375,2003.4000244140625,595.7999877929688,28454.400390625,1120.5,-2465.39990234375,-5108.7001953125,4508.39990234375,2910.300048828125,2535.89990234375,2792.10009765625,-8.699999809265137,0.8999999761581421,-902.7000122070312,-5974.2001953125,-13.800000190734863,6195.89990234375,1983.0,5545.2001953125,0.0
2.695493018742331,-9830.400390625,-9830.400390625,-8852.099609375,-9830.400390625,-9830.400390625,-9445.2001953125,-9830.400390625,-9047.400390625,-19562.400390625,9830.099609375,-9635.099609375,-7930.5,-9830.400390625,-9830.400390625,-9830.400390625,-9830.400390625,-8.699999809265137,1.2000000476837158,-9830.400390625,-8595.900390625,-14.100000381469727,9830.099609375,-9830.400390625,-9830.400390625,0.0
2.696278640800058,9830.099609375,9830.099609375,9830.099609375,9830.099609375,9830.099609375,9830.099609375,9830.099609375,9830.099609375,14820.0,9830.099609375,9830.099609375,9830.099609375,8893.5,8589.0,9111.0,9210.2998046875,-8.699999809265137,0.8999999761581421,9830.099609375,9830.099609375,-14.100000381469727,6852.60009765625,9753.599609375,9729.900390625,0.0
2.697010690426735,-7560.2998046875,-7383.60009765625,-7904.7001953125,-7181.7001953125,-7602.60009765625,-8011.2001953125,-7958.39990234375,-7976.10009765625,3408.60009765625,-4795.5,-9111.2998046875,-7922.7001953125,-5535.60009765625,-6222.60009765625,-7328.39990234375,-6768.89990234375,-8.699999809265137,0.6000000238418579,-8995.2001953125,-5756.10009765625,-13.800000190734863,-9128.7001953125,-5481.89990234375,-4157.10009765625,0.0
2.697829354163492,-604.7999877929688,-1563.5999755859375,-2127.60009765625,-2274.60009765625,-1395.0,-677.0999755859375,-173.39999389648438,-522.9000244140625,-17561.69921875,-9830.400390625,5105.7001953125,3842.10009765625,1146.0,2880.300048828125,2950.5,1962.300048828125,-8.399999618530273,0.0,4833.2998046875,3647.39990234375,-14.100000381469727,-9830.400390625,1574.0999755859375,-1061.4000244140625,0.0
2.6993402891948897,7952.39990234375,8109.2998046875,8205.900390625,8018.39990234375,7802.10009765625,7922.7001953125,7856.7001953125,8199.599609375,21933.599609375,444.8999938964844,5668.7998046875,4752.0,7629.0,7218.60009765625,7275.2998046875,7486.2001953125,-9.0,1.2000000476837158,6197.39990234375,4018.199951171875,-13.5,4313.39990234375,6950.7001953125,7307.10009765625,0.0
2.7001387429726282,-9830.400390625,-9830.400390625,-9830.400390625,-9830.400390625,-9830.400390625,-9830.400390625,-9830.400390625,-9830.400390625,-27268.80078125,9830.099609375,-9830.400390625,-9830.400390625,-9830.400390625,-9830.400390625,-9830.400390625,-9830.400390625,-8.100000381469727,0.8999999761581421,-9830.400390625,-9830.400390625,-13.800000190734863,9830.099609375,-9830.400390625,-9830.400390625,0.0
2.700902551106335,9830.099609375,9830.099609375,9830.099609375,9830.099609375,9830.099609375,9830.099609375,9830.099609375,9830.099609375,34975.19921875,9830.099609375,6822.0,8337.599609375,8996.099609375,7804.5,7743.89990234375,8182.5,-8.399999618530273,1.2000000476837158,6515.7001953125,8163.89990234375,-14.100000381469727,6611.10009765625,9080.400390625,9830.099609375,0.0
2.7016512819690277,-4738.5,-5238.60009765625,-5316.0,-5296.2001953125,-4716.89990234375,-4284.0,-4381.5,-3505.800048828125,-26157.30078125,-4448.10009765625,1413.5999755859375,2038.800048828125,-4137.89990234375,-2903.39990234375,-2995.199951171875,-3234.60009765625,-9.0,0.0,345.0,3384.89990234375,-13.5,-9296.400390625,-2928.300048828125,-4656.0,0.0
2.7331284535371436,-3383.10009765625,-3656.39990234375,-4901.10009765625,-4167.60009765625,-4556.39990234375,-4740.60009765625,-3852.89990234375,-5608.5,15486.900390625,-9830.400390625,-5817.0,-8075.10009765625,530.0999755859375,659.4000244140625,-382.5,-757.2000122070312,-8.399999618530273,0.30000001192092896,-4170.0,-8122.7998046875,-14.100000381469727,-9830.400390625,-367.5,163.8000030517578,0.0
2.734202147709137,9830.099609375,9830.099609375,9830.099609375,9656.099609375,9830.099609375,9830.099609375,9830.099609375,9830.099609375,-8373.2998046875,-3791.699951171875,9830.099609375,9830.099609375,8232.900390625,8852.7001953125,9618.2998046875,9390.0,-8.699999809265137,0.6000000238418579,9830.099609375,9544.5,-14.100000381469727,1221.300048828125,8481.900390625,6441.89990234375,0.0
2.7352290061030864,-9830.400390625,-9830.400390625,-9059.099609375,-9716.7001953125,-9830.400390625,-9830.400390625,-9830.400390625,-9771.599609375,-4742.39990234375,9830.099609375,-9772.2001953125,-9830.400390625,-9830.400390625,-9830.400390625,-9830.400390625,-9830.400390625,-9.0,0.6000000238418579,-9780.599609375,-9830.400390625,-13.800000190734863,9830.099609375,-9830.400390625,-9830.400390625,0.0
2.7362189733020026,2005.800048828125,5084.10009765625,7299.89990234375,8373.900390625,4774.7998046875,2178.300048828125,953.7000122070312,789.2999877929688,24749.400390625,9463.2001953125,-3557.699951171875,-376.79998779296875,-809.7000122070312,-3367.5,-4185.60009765625,-3092.699951171875,-8.399999618530273,0.8999999761581421,-4388.7001953125,1424.0999755859375,-14.399999618530273,2758.5,725.7000122070312,6747.60009765625,0.0
2.7368631256465985,6831.89990234375,2070.89990234375,645.0,-193.5,5659.5,8706.0,9470.7001953125,9670.5,-29047.19921875,-5638.5,9830.099609375,9830.099609375,9022.7998046875,9830.099609375,9830.099609375,9830.099609375,-8.699999809265137,0.8999999761581421,9830.099609375,9830.099609375,-13.800000190734863,-9830.400390625,9830.099609375,4574.10009765625,0.0
2.737633028847311,-7515.89990234375,-7555.2001953125,-9830.400390625,-8129.39990234375,-9287.099609375,-9830.400390625,-8849.7001953125,-9830.400390625,30084.599609375,-9830.400390625,-8501.7001953125,-8865.900390625,5788.7998046875,4563.89990234375,1394.0999755859375,1401.5999755859375,-8.699999809265137,1.5,-7305.89990234375,-7048.7998046875,-13.800000190734863,-9830.400390625,2406.89990234375,6319.5,0.0
2.738283597051912,-1610.4000244140625,-3225.60009765625,-2019.0,-4632.2998046875,-2237.10009765625,-116.69999694824219,-100.19999694824219,558.2999877929688,-32307.599609375,-4725.0,4559.7001953125,1226.4000244140625,-3696.60009765625,327.0,2743.800048828125,-344.3999938964844,-8.399999618530273,0.8999999761581421,4961.7001953125,-2674.5,-14.399999618530273,600.2999877929688,-5764.2001953125,-9830.400390625,0.0
2.7391170172666834,9830.099609375,9830.099609375,9830.099609375,9830.099609375,9830.099609375,9830.099609375,9458.099609375,9474.900390625,24527.099609375,9830.099609375,2884.5,4378.2001953125,7179.2998046875,4589.7001953125,5334.60009765625,6489.0,-9.0,1.7999999523162842,2931.60009765625,4053.300048828125,-13.800000190734863,9830.099609375,6509.7001953125,8961.2998046875,0.0
2.740024861457523,-9830.400390625,-9830.400390625,-9830.400390625,-9830.400390625,-9830.400390625,-9830.400390625,-9830.400390625,-9830.400390625,-5779.7998046875,7408.2001953125,-9830.400390625,-9830.400390625,-9830.400390625,-9830.400390625,-9830.400390625,-9830.400390625,-8.399999618530273,0.30000001192092896,-9830.400390625,-9830.400390625,-14.100000381469727,2570.39990234375,-9830.400390625,-9830.400390625,0.0
2.740760760600204,6604.7998046875,5957.39990234375,5940.2998046875,5627.39990234375,6749.39990234375,7173.89990234375,7044.2998046875,7358.7001953125,-1852.5,-8626.5,9598.7998046875,9830.099609375,6895.5,7257.89990234375,7229.7001953125,7063.5,-8.399999618530273,0.6000000238418579,8784.900390625,9830.099609375,-14.100000381469727,-9830.400390625,7888.7998046875,6563.10009765625,0.0
2.74126504719667,1040.0999755859375,663.0,-352.5,403.5,235.1999969482422,357.0,882.9000244140625,588.5999755859375,11930.099609375,-9830.400390625,1925.699951171875,587.7000122070312,3118.800048828125,3787.5,3444.300048828125,3300.89990234375,-8.699999809265137,0.6000000238418579,2775.60009765625,1199.0999755859375,-13.5,-9830.400390625,2823.60009765625,2465.699951171875,0.0
2.7415322677659173,-7455.0,-7431.60009765625,-7063.7998046875,-7657.7998046875,-7549.5,-7318.5,-7408.7998046875,-7528.7998046875,-26231.400390625,-4826.7001953125,-8694.599609375,-9830.400390625,-7987.7998046875,-8167.5,-7753.5,-8208.2998046875,-8.399999618530273,0.6000000238418579,-8303.400390625,-9830.400390625,-14.100000381469727,348.6000061035156,-8799.900390625,-8843.400390625,0.0
2.7423018501736296,9830.099609375,9830.099609375,9830.099609375,9830.099609375,9830.099609375,9830.099609375,9830.099609375,9830.099609375,32307.599609375,9830.099609375,9830.099609375,9830.099609375,9830.099609375,9565.7998046875,9830.099609375,9830.099609375,-8.699999809265137,0.8999999761581421,9830.099609375,9830.099609375,-14.100000381469727,9830.099609375,9830.099609375,9830.099609375,0.0
2.7427256177270216,-9830.400390625,-9830.400390625,-9595.2001953125,-9752.099609375,-9830.400390625,-9830.400390625,-9830.400390625,-9676.5,-26453.69921875,9327.2998046875,-9830.400390625,-9830.400390625,-9830.400390625,-9830.400390625,-9830.400390625,-9830.400390625,-8.399999618530273,1.2000000476837158,-9830.400390625,-9820.2001953125,-13.800000190734863,4904.10009765625,-9830.400390625,-9830.400390625,0.0
2.7430348621793073,3787.800048828125,3849.89990234375,3084.60009765625,3970.800048828125,3669.0,3096.0,3417.60009765625,2390.39990234375,27491.099609375,-6738.89990234375,3363.89990234375,5006.7001953125,5652.60009765625,5137.2001953125,4272.89990234375,4433.7001953125,-8.399999618530273,0.6000000238418579,3154.800048828125,6756.2998046875,-14.100000381469727,-9555.2998046875,5819.39990234375,6654.60009765625,0.0
2.7433896592376357,4343.7001953125,3030.0,2538.0,2180.10009765625,3594.60009765625,4780.5,5081.7001953125,5801.39990234375,-21118.5,-9830.400390625,8982.2998046875,6998.7001953125,4975.5,6861.60009765625,7476.0,6723.2998046875,-9.0,0.8999999761581421,9268.5,5951.10009765625,-13.800000190734863,-9830.400390625,5501.39990234375,2521.199951171875,0.0
2.7436950541739176,-9830.400390625,-9054.0,-9066.599609375,-8888.7001953125,-9830.400390625,-9830.400390625,-9830.400390625,-9830.400390625,4075.5,-5795.7001953125,-9830.400390625,-9830.400390625,-9265.7998046875,-9830.400390625,-9830.400390625,-9830.400390625,-8.699999809265137,1.2000000476837158,-9830.400390625,-9830.400390625,-13.800000190734863,3460.800048828125,-9830.400390625,-8865.900390625,0.0
2.743979597565181,9830.099609375,9830.099609375,9830.099609375,9830.099609375,9830.099609375,9830.099609375,9830.099609375,9830.099609375,10225.7998046875,9830.099609375,4020.0,4192.7998046875,5607.0,1698.9000244140625,4487.7001953125,5313.89990234375,-8.399999618530273,1.7999999523162842,4255.2001953125,2586.0,-14.100000381469727,9830.099609375,4215.60009765625,7070.10009765625,0.0
2.7609938167149197,-5849.7001953125,-5641.7998046875,-3103.5,-4672.7998046875,-3591.0,-2946.89990234375,-4628.7001953125,-1494.5999755859375,-16450.19921875,9627.900390625,104.0999984741211,3195.60009765625,-9830.400390625,-9830.400390625,-9830.400390625,-9830.400390625,-8.699999809265137,1.2000000476837158,-2502.0,5050.2001953125,-13.800000190734863,6262.2001953125,-9830.400390625,-9830.400390625,0.0
2.7613033819602055,-8505.900390625,-9238.7998046875,-9830.400390625,-9325.7998046875,-9830.400390625,-9830.400390625,-9141.900390625,-9830.400390625,30603.30078125,-3496.199951171875,-7983.89990234375,-7983.2998046875,2415.89990234375,319.79998779296875,-2631.300048828125,-2105.39990234375,-8.399999618530273,1.2000000476837158,-7162.2001953125,-4862.10009765625,-14.100000381469727,-9235.2001953125,2163.89990234375,7449.2998046875,0.0
2.7615959451764764,7216.2001953125,3280.800048828125,1515.300048828125,-25.200000762939453,5553.2998046875,8011.5,8578.2001953125,9038.099609375,-36309.0,-9830.400390625,9830.099609375,9830.099609375,9830.099609375,9830.099609375,9830.099609375,9830.099609375,-9.0,0.8999999761581421,9830.099609375,9830.099609375,-14.100000381469727,-9830.400390625,9830.099609375,2823.89990234375,0.0
2.7618846588767436,3229.5,4890.89990234375,4173.0,5206.5,2244.0,1347.9000244140625,1877.4000244140625,512.7000122070312,28083.900390625,1475.699951171875,-2514.0,-5190.2998046875,4383.2998046875,2783.10009765625,2463.0,2653.199951171875,-8.699999809265137,1.2000000476837158,-1005.2999877929688,-6084.2998046875,-13.5,6263.10009765625,1892.4000244140625,5279.39990234375,0.0
2.7621752973350118,-9830.400390625,-9830.400390625,-8880.2998046875,-9830.400390625,-9830.400390625,-9471.599609375,-9830.400390625,-9058.5,-18969.599609375,9830.099609375,-9619.7998046875,-7899.2998046875,-9830.400390625,-9830.400390625,-9830.400390625,-9830.400390625,-8.699999809265137,0.6000000238418579,-9830.400390625,-8557.7998046875,-14.100000381469727,9830.099609375,-9830.400390625,-9830.400390625,0.0
2.762464011035279,9830.099609375,9830.099609375,9830.099609375,9830.099609375,9830.099609375,9830.099609375,9830.099609375,9830.099609375,13856.7001953125,9800.099609375,9830.099609375,9830.099609375,8808.599609375,8518.2001953125,9087.900390625,9157.5,-8.699999809265137,1.2000000476837158,9830.099609375,9830.099609375,-14.100000381469727,6746.10009765625,9727.5,9617.400390625,0.0
2.7627514415635455,-7466.10009765625,-7332.0,-7816.7998046875,-7090.5,-7498.7998046875,-7920.0,-7864.2001953125,-7906.7998046875,3927.300048828125,-4997.10009765625,-9035.400390625,-7867.2001953125,-5379.60009765625,-6081.2998046875,-7224.0,-6644.39990234375,-8.699999809265137,1.2000000476837158,-8923.5,-5720.10009765625,-13.800000190734863,-9213.599609375,-5341.7998046875,-3980.10009765625,0.0
2.763038872091811,-770.7000122070312,-1713.5999755859375,-2235.60009765625,-2415.0,-1536.300048828125,-774.2999877929688,-276.8999938964844,-596.7000122070312,-18376.80078125,-9830.400390625,5091.89990234375,3804.60009765625,1002.0,2785.800048828125,2865.0,1843.800048828125,-8.399999618530273,0.6000000238418579,4822.5,3558.0,-14.100000381469727,-9830.400390625,1439.4000244140625,-1247.0999755859375,0.0
2.7633253402410762,8075.7001953125,8207.099609375,8338.5,8143.5,7906.2001953125,8022.2998046875,7975.5,8294.400390625,22378.19921875,470.70001220703125,5668.7998046875,4782.60009765625,7725.89990234375,7275.2998046875,7340.7001953125,7562.10009765625,-9.0,2.4000000953674316,6190.7998046875,4054.199951171875,-14.100000381469727,4411.5,7045.2001953125,7436.7001953125,0.0
2.8093103752476125,-9830.400390625,-9830.400390625,-9830.400390625,-9830.400390625,-9830.400390625,-9830.400390625,-9830.400390625,-9830.400390625,-27491.099609375,9830.099609375,-9830.400390625,-9830.400390625,-9830.400390625,-9830.400390625,-9830.400390625,-9830.400390625,-8.399999618530273,0.30000001192092896,-9830.400390625,-9830.400390625,-14.100000381469727,9830.099609375,-9830.400390625,-9830.400390625,0.0
2.8099651137612174,9830.099609375,9830.099609375,9830.099609375,9830.099609375,9830.099609375,9830.099609375,9830.099609375,9830.099609375,34678.80078125,9830.099609375,6824.10009765625,8319.0,8953.7998046875,7749.0,7685.39990234375,8131.7998046875,-8.699999809265137,1.2000000476837158,6489.2998046875,8121.2998046875,-14.100000381469727,6457.7998046875,9011.099609375,9830.099609375,0.0
2.810558580811767,-4635.0,-5126.10009765625,-5210.7001953125,-5145.60009765625,-4593.60009765625,-4165.5,-4230.89990234375,-3416.10009765625,-25786.80078125,-4583.7001953125,1501.5,2068.199951171875,-3982.5,-2726.39990234375,-2832.60009765625,-3093.0,-9.0,0.8999999761581421,520.7999877929688,3446.10009765625,-13.5,-9399.2998046875,-2784.60009765625,-4511.10009765625,0.0
2.811150443897314,-3495.89990234375,-3793.800048828125,-4985.7001953125,-4288.5,-4637.10009765625,-4806.2998046875,-3951.60009765625,-5610.60009765625,14671.7998046875,-9830.400390625,-5859.89990234375,-8097.89990234375,336.6000061035156,455.70001220703125,-544.2000122070312,-919.2000122070312,-8.699999809265137,0.6000000238418579,-4230.2998046875,-8205.599609375,-14.100000381469727,-9830.400390625,-564.2999877929688,-76.80000305175781,0.0
2.811728833676849,9830.099609375,9830.099609375,9830.099609375,9765.900390625,9830.099609375,9830.099609375,9830.099609375,9830.099609375,-7484.10009765625,-3666.300048828125,9830.099609375,9830.099609375,8340.900390625,8910.2998046875,9665.400390625,9452.400390625,-8.699999809265137,0.8999999761581421,9830.099609375,9497.099609375,-14.100000381469727,1347.5999755859375,8543.7001953125,6604.5,0.0
2.8123357740334107,-9830.400390625,-9830.400390625,-9233.400390625,-9830.400390625,-9830.400390625,-9830.400390625,-9830.400390625,-9830.400390625,-5705.7001953125,9830.099609375,-9815.400390625,-9830.400390625,-9830.400390625,-9830.400390625,-9830.400390625,-9830.400390625,-9.0,0.6000000238418579,-9814.2001953125,-9830.400390625,-13.800000190734863,9830.099609375,-9830.400390625,-9830.400390625,0.0
2.8129160885709474,2328.89990234375,5322.89990234375,7574.10009765625,8616.599609375,5060.39990234375,2359.5,1213.5,967.2000122070312,25268.099609375,9298.7998046875,-3501.89990234375,-285.6000061035156,-286.79998779296875,-3015.89990234375,-3893.39990234375,-2709.0,-8.399999618530273,0.8999999761581421,-4279.5,1524.9000244140625,-14.100000381469727,2561.10009765625,972.0,7129.5,0.0
2.8134883832834765,6698.7001953125,1887.0,595.7999877929688,-287.70001220703125,5527.2001953125,8448.900390625,9330.900390625,9526.7998046875,-29491.80078125,-5960.10009765625,9830.099609375,9830.099609375,9136.5,9830.099609375,9830.099609375,9830.099609375,-8.699999809265137,1.5,9830.099609375,9830.099609375,-13.5,-9830.400390625,9830.099609375,4405.7998046875,0.0
2.8140937196750366,-7640.39990234375,-7747.7998046875,-9830.400390625,-8296.7998046875,-9448.7998046875,-9830.400390625,-8965.7998046875,-9830.400390625,30084.599609375,-9830.400390625,-8495.099609375,-8889.0,6006.2998046875,4673.7001953125,1468.5,1647.9000244140625,-8.699999809265137,0.30000001192092896,-7331.39990234375,-7146.2998046875,-13.800000190734863,-9830.400390625,2430.89990234375,6288.89990234375,0.0
2.832274662966854,-1505.4000244140625,-3121.199951171875,-1843.800048828125,-4539.0,-2081.699951171875,17.700000762939453,37.79999923706055,648.2999877929688,-31714.80078125,-4598.39990234375,4555.5,1227.9000244140625,-3620.699951171875,322.5,2819.699951171875,-107.0999984741211,-8.699999809265137,0.6000000238418579,5004.89990234375,-2715.89990234375,-14.399999618530273,725.0999755859375,-5799.2998046875,-9830.400390625,0.0
2.832914965795446,9830.099609375,9830.099609375,9830.099609375,9830.099609375,9830.099609375,9830.099609375,9446.400390625,9444.599609375,23786.099609375,9830.099609375,2883.0,4362.89990234375,6996.89990234375,4329.0,5181.2998046875,6347.39990234375,-9.300000190734863,1.2000000476837158,2880.0,4006.800048828125,-14.100000381469727,9830.099609375,6221.10009765625,8826.2998046875,0.0
2.833504583329992,-9830.400390625,-9830.400390625,-9830.400390625,-9830.400390625,-9830.400390625,-9830.400390625,-9830.400390625,-9830.400390625,-5038.7998046875,7339.7998046875,-9830.400390625,-9830.400390625,-9830.400390625,-9830.400390625,-9830.400390625,-9830.400390625,-8.100000381469727,0.6000000238418579,-9830.400390625,-9830.400390625,-13.800000190734863,2446.5,-9830.400390625,-9830.400390625,0.0
2.834083935488527,6475.2001953125,5801.39990234375,5802.60009765625,5480.10009765625,6652.2001953125,7065.60009765625,6947.7001953125,7259.7001953125,-2964.0,-8638.7998046875,9600.0,9830.099609375,6830.39990234375,7177.5,7163.7001953125,7011.0,-8.699999809265137,0.6000000238418579,8784.0,9830.099609375,-14.100000381469727,-9830.400390625,7788.60009765625,6403.2001953125,0.0
2.8346568717870575,1163.0999755859375,822.9000244140625,-197.6999969482422,522.2999877929688,350.70001220703125,455.70001220703125,1017.5999755859375,667.5,12671.099609375,-9830.400390625,1960.5,604.2000122070312,3274.199951171875,3915.300048828125,3564.0,3415.5,-9.0,0.30000001192092896,2812.5,1174.800048828125,-13.5,-9830.400390625,2962.800048828125,2626.199951171875,0.0
2.83523205363659,-7574.39990234375,-7519.7998046875,-7137.89990234375,-7760.39990234375,-7635.2998046875,-7420.2001953125,-7497.0,-7628.39990234375,-26676.0,-4718.39990234375,-8745.900390625,-9830.400390625,-8105.7001953125,-8298.599609375,-7871.10009765625,-8315.400390625,-9.0,0.6000000238418579,-8357.099609375,-9830.400390625,-14.100000381469727,486.0,-8948.7001953125,-8990.7001953125,0.0
2.8358017820051167,9830.099609375,9830.099609375,9830.099609375,9830.099609375,9830.099609375,9830.099609375,9830.099609375,9830.099609375,32529.900390625,9830.099609375,9830.099609375,9830.099609375,9830.099609375,9598.7998046875,9830.099609375,9830.099609375,-9.0,1.2000000476837158,9830.099609375,9830.099609375,-14.699999809265137,9830.099609375,9830.099609375,9830.099609375,0.0
2.8364064768106756,-9830.400390625,-9830.400390625,-9511.7998046875,-9670.7998046875,-9814.7998046875,-9830.400390625,-9830.400390625,-9604.7998046875,-26379.599609375,9210.0,-9830.400390625,-9830.400390625,-9830.400390625,-9830.400390625,-9830.400390625,-9830.400390625,-8.399999618530273,0.6000000238418579,-9830.400390625,-9686.400390625,-13.800000190734863,4774.7998046875,-9830.400390625,-9830.400390625,0.0
2.836988074520214,3629.39990234375,3710.39990234375,2943.60009765625,3789.89990234375,3525.89990234375,2977.800048828125,3300.60009765625,2256.89990234375,26824.19921875,-6873.2998046875,3405.300048828125,5005.2001953125,5512.2001953125,5057.10009765625,4227.60009765625,4358.10009765625,-8.399999618530273,0.30000001192092896,3177.0,6743.10009765625,-13.800000190734863,-9617.7001953125,5700.60009765625,6485.10009765625,0.0
2.9034826892077215,4480.2001953125,3190.5,2703.300048828125,2355.300048828125,3752.10009765625,4894.2001953125,5190.2998046875,5865.60009765625,-20525.69921875,-9830.400390625,8980.2001953125,6975.2998046875,5126.7001953125,6921.2998046875,7514.10009765625,6831.89990234375,-8.699999809265137,0.8999999761581421,9260.7001953125,5921.10009765625,-13.800000190734863,-9830.400390625,5582.39990234375,2712.89990234375,0.0
2.903897153764105,-9830.400390625,-9129.0,-9144.0,-8985.900390625,-9830.400390625,-9830.400390625,-9830.400390625,-9830.400390625,3186.300048828125,-5586.0,-9830.400390625,-9830.400390625,-9402.0,-9830.400390625,-9830.400390625,-9830.400390625,-8.699999809265137,0.30000001192092896,-9830.400390625,-9830.400390625,-14.100000381469727,3764.10009765625,-9830.400390625,-9070.7998046875,0.0
2.904276331090456,9830.099609375,9830.099609375,9830.099609375,9830.099609375,9830.099609375,9830.099609375,9830.099609375,9830.099609375,11263.2001953125,9830.099609375,4074.89990234375,4204.2001953125,6003.0,2059.800048828125,4776.0,5796.89990234375,-8.399999618530273,1.2000000476837158,4337.7001953125,2670.60009765625,-13.800000190734863,9830.099609375,4481.7001953125,7417.7998046875,0.0
2.9046494133498006,-5943.89990234375,-5802.0,-3346.199951171875,-4989.0,-3759.89990234375,-3142.5,-4744.7998046875,-1715.699951171875,-16968.900390625,9553.5,83.69999694824219,3105.0,-9830.400390625,-9830.400390625,-9830.400390625,-9830.400390625,-9.0,0.8999999761581421,-2531.39990234375,4923.60009765625,-14.100000381469727,6184.2001953125,-9830.400390625,-9830.400390625,0.0
2.9050285906761513,-8272.2001953125,-8971.2001953125,-9830.400390625,-9166.2001953125,-9830.400390625,-9830.400390625,-8947.7998046875,-9830.400390625,30825.599609375,-3618.0,-7968.60009765625,-7994.39990234375,2662.5,590.0999755859375,-2470.5,-1837.199951171875,-8.399999618530273,1.2000000476837158,-7110.2998046875,-4894.5,-13.800000190734863,-9339.900390625,2235.300048828125,7554.0,0.0
2.9053978234194933,7400.10009765625,3415.800048828125,1632.9000244140625,-54.0,5742.60009765625,8069.39990234375,8726.099609375,9102.0,-36457.19921875,-9830.400390625,9830.099609375,9830.099609375,9830.099609375,9830.099609375,9830.099609375,9830.099609375,-8.699999809265137,1.5,9830.099609375,9830.099609375,-14.100000381469727,-9830.400390625,9830.099609375,2766.0,0.0
2.905766414576834,3161.10009765625,4861.2001953125,4150.2001953125,5113.2001953125,2192.10009765625,1229.4000244140625,1771.199951171875,389.1000061035156,27639.30078125,1736.699951171875,-2570.699951171875,-5271.89990234375,4270.7998046875,2699.10009765625,2351.10009765625,2563.5,-9.0,1.5,-1072.199951171875,-6167.7001953125,-13.800000190734863,6345.60009765625,1686.300048828125,4787.10009765625,0.0
2.906133080976173,-9830.400390625,-9830.400390625,-8832.900390625,-9830.400390625,-9830.400390625,-9499.2001953125,-9830.400390625,-9060.900390625,-18450.900390625,9830.099609375,-9628.5,-7864.2001953125,-9830.400390625,-9830.400390625,-9830.400390625,-9830.400390625,-8.399999618530273,0.6000000238418579,-9830.400390625,-8520.599609375,-14.100000381469727,9830.099609375,-9830.400390625,-9830.400390625,0.0
2.9065013513405136,9830.099609375,9830.099609375,9830.099609375,9830.099609375,9830.099609375,9830.099609375,9830.099609375,9830.099609375,12893.400390625,9748.2001953125,9830.099609375,9830.099609375,8749.2001953125,8510.7001953125,9048.0,9153.2998046875,-8.699999809265137,1.7999999523162842,9830.099609375,9830.099609375,-13.800000190734863,6626.7001953125,9657.2998046875,9489.0,0.0
2.9068872653198703,-7338.60009765625,-7192.5,-7714.2001953125,-6966.89990234375,-7414.5,-7875.0,-7746.0,-7868.7001953125,5038.7998046875,-5171.39990234375,-8982.900390625,-7828.2001953125,-5213.10009765625,-5890.5,-7065.60009765625,-6496.2001953125,-8.399999618530273,0.8999999761581421,-8845.5,-5618.39990234375,-13.800000190734863,-9306.2998046875,-5162.7001953125,-3751.5,0.0
2.9072850486402384,-874.7999877929688,-1828.800048828125,-2350.5,-2542.800048828125,-1616.0999755859375,-900.5999755859375,-372.0,-717.9000244140625,-19266.0,-9830.400390625,5059.2001953125,3731.39990234375,901.5,2703.0,2802.89990234375,1767.5999755859375,-8.399999618530273,0.6000000238418579,4781.7001953125,3474.89990234375,-14.100000381469727,-9830.400390625,1333.5,-1440.0,0.0
2.9076546021765806,8166.2998046875,8332.7998046875,8477.099609375,8263.2001953125,8025.2998046875,8089.2001953125,8034.0,8346.2998046875,23119.19921875,521.0999755859375,5675.7001953125,4813.2001953125,7804.7998046875,7334.39990234375,7393.2001953125,7629.89990234375,-9.300000190734863,0.8999999761581421,6220.7998046875,4092.300048828125,-13.800000190734863,4469.39990234375,7121.39990234375,7550.7001953125,0.0
2.908022872540921,-9830.400390625,-9830.400390625,-9830.400390625,-9830.400390625,-9830.400390625,-9830.400390625,-9830.400390625,-9830.400390625,-27491.099609375,9830.099609375,-9830.400390625,-9830.400390625,-9830.400390625,-9830.400390625,-9830.400390625,-9830.400390625,-8.399999618530273,0.6000000238418579,-9830.400390625,-9830.400390625,-14.100000381469727,9830.099609375,-9830.400390625,-9830.400390625,0.0
2.908391463698262,9830.099609375,9830.099609375,9830.099609375,9830.099609375,9830.099609375,9830.099609375,9830.099609375,9830.099609375,34752.8984375,9830.099609375,6830.39990234375,8344.5,8865.599609375,7717.2001953125,7627.7998046875,8079.2998046875,-8.399999618530273,1.2000000476837158,6465.89990234375,8169.0,-14.100000381469727,6283.2001953125,8952.599609375,9830.099609375,0.0
2.9087568469256,-4480.5,-4993.7998046875,-5099.10009765625,-5034.60009765625,-4469.7001953125,-4052.699951171875,-4112.39990234375,-3321.300048828125,-25194.0,-4704.0,1556.0999755859375,2093.699951171875,-3794.699951171875,-2572.800048828125,-2685.89990234375,-2908.800048828125,-8.699999809265137,1.7999999523162842,575.7000122070312,3452.699951171875,-13.800000190734863,-9507.599609375,-2613.300048828125,-4323.89990234375,0.0
2.909147893592962,-3624.60009765625,-3905.10009765625,-5087.39990234375,-4411.7998046875,-4731.60009765625,-4901.7001953125,-4070.10009765625,-5709.2998046875,13930.7998046875,-9830.400390625,-5928.89990234375,-8161.2001953125,137.10000610351562,292.20001220703125,-713.4000244140625,-1087.5,-8.399999618530273,1.2000000476837158,-4283.7001953125,-8279.400390625,-13.800000190734863,-9830.400390625,-774.0,-303.8999938964844,0.0
2.9095280332983133,9830.099609375,9830.099609375,9830.099609375,9830.099609375,9830.099609375,9830.099609375,9830.099609375,9830.099609375,-6669.0,-3560.699951171875,9830.099609375,9830.099609375,8442.0,8986.5,9742.7998046875,9515.099609375,-8.699999809265137,1.5,9830.099609375,9518.7001953125,-13.800000190734863,1465.800048828125,8632.5,6776.39990234375,0.0
2.90990271952266,-9830.400390625,-9830.400390625,-9315.2998046875,-9830.400390625,-9830.400390625,-9830.400390625,-9830.400390625,-9825.0,-6669.0,9830.099609375,-9825.599609375,-9830.400390625,-9830.400390625,-9830.400390625,-9830.400390625,-9830.400390625,-8.699999809265137,0.30000001192092896,-9830.400390625,-9830.400390625,-13.5,9830.099609375,-9830.400390625,-9830.400390625,0.0
2.9489470771747763,2678.699951171875,5667.0,7768.7998046875,8767.7998046875,5327.7001953125,2571.60009765625,1442.699951171875,1054.199951171875,25935.0,9118.7998046875,-3416.39990234375,-236.6999969482422,197.6999969482422,-2683.5,-3540.0,-2340.60009765625,-7.800000190734863,0.30000001192092896,-4170.89990234375,1610.699951171875,-14.100000381469727,2299.5,1353.0,7723.2001953125,0.0
2.9495508096013348,6719.10009765625,1915.5,464.70001220703125,-354.6000061035156,5478.0,8337.599609375,9146.7001953125,9384.599609375,-29936.400390625,-6264.89990234375,9830.099609375,9830.099609375,9291.0,9830.099609375,9830.099609375,9830.099609375,-9.0,0.30000001192092896,9830.099609375,9830.099609375,-13.800000190734863,-9830.400390625,9830.099609375,4383.2998046875,0.0
2.9501356152408755,-7769.7001953125,-7891.7998046875,-9830.400390625,-8551.2001953125,-9642.2998046875,-9830.400390625,-9131.099609375,-9830.400390625,30232.80078125,-9830.400390625,-8492.400390625,-8909.7001953125,6137.39990234375,4814.10009765625,1602.5999755859375,1604.0999755859375,-8.699999809265137,0.8999999761581421,-7386.2998046875,-7131.2998046875,-13.800000190734863,-9830.400390625,2626.800048828125,6246.89990234375,0.0
2.9507181753294143,-1294.199951171875,-2927.699951171875,-1732.5,-4371.60009765625,-1981.199951171875,169.5,169.1999969482422,735.0,-31418.400390625,-4430.10009765625,4516.7998046875,1228.5,-3524.39990234375,255.3000030517578,2971.199951171875,-94.19999694824219,-8.399999618530273,0.8999999761581421,4942.7998046875,-2810.699951171875,-14.100000381469727,900.0,-5757.89990234375,-9830.400390625,0.0
2.9512952819369485,9830.099609375,9830.099609375,9830.099609375,9830.099609375,9830.099609375,9830.099609375,9413.400390625,9419.400390625,23193.30078125,9830.099609375,2823.60009765625,4355.39990234375,6764.7001953125,3851.39990234375,5053.2001953125,6190.5,-9.0,1.5,2802.0,3984.89990234375,-13.800000190734863,9830.099609375,5939.10009765625,8683.7998046875,0.0
2.9518691806144792,-9830.400390625,-9830.400390625,-9830.400390625,-9830.400390625,-9830.400390625,-9830.400390625,-9830.400390625,-9830.400390625,-4223.7001953125,7252.2001953125,-9830.400390625,-9830.400390625,-9830.400390625,-9830.400390625,-9830.400390625,-9830.400390625,-8.399999618530273,0.6000000238418579,-9830.400390625,-9830.400390625,-13.800000190734863,2368.199951171875,-9830.400390625,-9830.400390625,0.0
2.952440833741008,6379.7998046875,5686.5,5657.10009765625,5310.89990234375,6508.7998046875,6968.10009765625,6852.0,7203.60009765625,-4223.7001953125,-8679.900390625,9607.5,9830.099609375,6722.7001953125,7092.89990234375,7110.60009765625,6934.2001953125,-9.0,0.8999999761581421,8793.599609375,9830.099609375,-14.100000381469727,-9830.400390625,7688.10009765625,6266.10009765625,0.0
2.9530102413165347,1326.9000244140625,987.5999755859375,-77.69999694824219,671.7000122070312,451.20001220703125,593.7000122070312,1158.9000244140625,792.2999877929688,13263.900390625,-9830.400390625,2027.0999755859375,610.7999877929688,3431.10009765625,4059.0,3686.699951171875,3547.800048828125,-9.0,0.6000000238418579,2882.39990234375,1172.0999755859375,-13.800000190734863,-9830.400390625,3063.60009765625,2760.89990234375,0.0
2.9535818944430634,-7696.7998046875,-7642.7998046875,-7242.2998046875,-7880.7001953125,-7736.39990234375,-7509.2998046875,-7616.39990234375,-7705.5,-27268.80078125,-4611.0,-8864.400390625,-9830.400390625,-8265.900390625,-8471.7001953125,-8025.60009765625,-8487.2998046875,-8.699999809265137,1.5,-8495.400390625,-9830.400390625,-13.800000190734863,645.9000244140625,-9105.900390625,-9129.900390625,0.0
2.9541564347065945,9830.099609375,9830.099609375,9830.099609375,9830.099609375,9830.099609375,9830.099609375,9830.099609375,9830.099609375,32752.19921875,9830.099609375,9830.099609375,9830.099609375,9830.099609375,9586.5,9830.099609375,9830.099609375,-9.0,0.6000000238418579,9830.099609375,9830.099609375,-14.100000381469727,9830.099609375,9830.099609375,9830.099609375,0.0
2.9547287294191245,-9830.400390625,-9830.400390625,-9461.400390625,-9621.0,-9788.099609375,-9818.7001953125,-9830.400390625,-9573.2998046875,-26083.19921875,9165.0,-9830.400390625,-9830.400390625,-9830.400390625,-9830.400390625,-9830.400390625,-9830.400390625,-8.399999618530273,0.6000000238418579,-9830.400390625,-9643.5,-13.800000190734863,4683.0,-9830.400390625,-9830.400390625,0.0
2.9553010241316535,3549.89990234375,3579.300048828125,2778.0,3618.0,3366.89990234375,2886.0,3189.300048828125,2182.199951171875,26379.599609375,-6900.60009765625,3455.699951171875,4960.5,5419.5,5012.39990234375,4166.10009765625,4293.0,-8.399999618530273,0.0,3224.39990234375,6683.39990234375,-14.100000381469727,-9672.599609375,5617.7998046875,6343.7998046875,0.0
2.955875885188185,4549.7998046875,3313.800048828125,2810.39990234375,2512.199951171875,3809.39990234375,4937.10009765625,5237.10009765625,5930.39990234375,-19636.5,-9830.400390625,8945.7001953125,6917.10009765625,5238.89990234375,6952.2001953125,7541.39990234375,6869.10009765625,-9.0,1.2000000476837158,9230.099609375,5889.60009765625,-13.800000190734863,-9830.400390625,5656.5,2851.800048828125,0.0
2.9564427264197093,-9830.400390625,-9225.900390625,-9249.900390625,-9117.900390625,-9830.400390625,-9830.400390625,-9830.400390625,-9830.400390625,2074.800048828125,-5452.5,-9830.400390625,-9830.400390625,-9576.900390625,-9830.400390625,-9830.400390625,-9830.400390625,-8.699999809265137,0.6000000238418579,-9830.400390625,-9830.400390625,-13.5,4041.60009765625,-9830.400390625,-9261.0,0.0
2.9570111716162355,9830.099609375,9830.099609375,9830.099609375,9830.099609375,9830.099609375,9830.099609375,9830.099609375,9830.099609375,12078.2998046875,9830.099609375,4043.10009765625,4186.2001953125,6287.39990234375,2183.10009765625,4905.89990234375,5962.5,-8.399999618530273,1.2000000476837158,4320.0,2717.10009765625,-14.100000381469727,9830.099609375,4692.89990234375,7646.39990234375,0.0
2.9576232446608017,-6019.5,-5928.2998046875,-3517.800048828125,-5176.7998046875,-3951.89990234375,-3234.89990234375,-4809.60009765625,-1813.800048828125,-17858.099609375,9485.099609375,130.1999969482422,3116.10009765625,-9830.400390625,-9830.400390625,-9830.400390625,-9830.400390625,-9.0,0.8999999761581421,-2472.60009765625,4927.2001953125,-13.5,6101.10009765625,-9830.400390625,-9830.400390625,0.0
2.958200030475335,-7955.39990234375,-8604.599609375,-9830.400390625,-8877.2998046875,-9830.400390625,-9830.400390625,-8744.400390625,-9830.400390625,31196.099609375,-3693.0,-7935.2998046875,-8003.10009765625,3035.10009765625,792.9000244140625,-2232.89990234375,-1542.5999755859375,-8.399999618530273,1.2000000476837158,-7065.89990234375,-4784.7001953125,-14.100000381469727,-9443.400390625,2399.10009765625,7859.39990234375,0.0
2.958776495496868,7609.2001953125,3548.39990234375,1645.5,-39.0,5769.2998046875,8260.5,8877.0,9209.400390625,-36457.19921875,-9830.400390625,9830.099609375,9830.099609375,9830.099609375,9830.099609375,9830.099609375,9830.099609375,-8.699999809265137,1.5,9830.099609375,9830.099609375,-14.399999618530273,-9822.2998046875,9830.099609375,2766.89990234375,0.0
2.980249416557731,3066.300048828125,4866.0,4127.39990234375,5034.89990234375,2030.0999755859375,1129.800048828125,1693.800048828125,292.5,27565.19921875,2113.199951171875,-2695.800048828125,-5353.2001953125,4235.39990234375,2628.60009765625,2259.0,2485.800048828125,-8.699999809265137,0.8999999761581421,-1179.0,-6276.2998046875,-13.800000190734863,6461.39990234375,1544.4000244140625,4461.89990234375,0.0
2.9808807371823143,-9830.400390625,-9830.400390625,-8822.7001953125,-9830.400390625,-9830.400390625,-9489.599609375,-9830.400390625,-9082.7998046875,-17561.69921875,9830.099609375,-9635.099609375,-7859.39990234375,-9830.400390625,-9830.400390625,-9830.400390625,-9830.400390625,-8.399999618530273,0.6000000238418579,-9830.400390625,-8502.900390625,-14.100000381469727,9830.099609375,-9830.400390625,-9830.400390625,0.0
2.9814709963028605,9830.099609375,9830.099609375,9830.099609375,9830.099609375,9830.099609375,9830.099609375,9830.099609375,9830.099609375,12152.400390625,9714.2998046875,9830.099609375,9830.099609375,8676.2998046875,8436.900390625,8998.5,9087.599609375,-9.0,0.8999999761581421,9830.099609375,9830.099609375,-14.100000381469727,6524.39990234375,9602.7001953125,9354.2998046875,0.0
2.9820541979774005,-7254.60009765625,-7098.2998046875,-7670.10009765625,-6872.39990234375,-7335.89990234375,-7771.5,-7669.5,-7812.89990234375,5779.7998046875,-5359.7998046875,-8965.7998046875,-7771.7998046875,-4984.5,-5730.2998046875,-6947.39990234375,-6335.10009765625,-8.699999809265137,1.2000000476837158,-8789.099609375,-5571.0,-13.800000190734863,-9390.599609375,-4950.0,-3528.89990234375,0.0
2.9826922552549906,-1008.0,-1941.0,-2459.699951171875,-2679.60009765625,-1773.300048828125,-980.7000122070312,-464.70001220703125,-819.9000244140625,-19932.900390625,-9830.400390625,5024.10009765625,3639.300048828125,748.2000122070312,2565.0,2709.60009765625,1649.699951171875,-8.399999618530273,0.8999999761581421,4771.2001953125,3317.10009765625,-14.100000381469727,-9830.400390625,1167.5999755859375,-1626.9000244140625,0.0
