daq_type,DSI
sample_rate,300
timestamp,P3,C3,F3,Fz,F4,C4,P4,Cz,CM,A1,Fp1,Fp2,T3,T5,O1,O2,X3,X2,F7,F8,X1,A2,T6,T4,TRG                       
2.1157433976790627,7552.2001953125,6911.7001953125,7168.2001953125,6805.5,7953.60009765625,8582.099609375,8328.0,9540.2998046875,-11633.7001953125,8943.0,9830.099609375,9830.099609375,5138.7001953125,6044.39990234375,7018.5,7066.5,-8.699999809265137,1.5,9830.099609375,9830.099609375,-13.800000190734863,4232.10009765625,7496.10009765625,5023.2001953125,0.0
2.1178144372889784,-9830.400390625,-9830.400390625,-9830.400390625,-9830.400390625,-9830.400390625,-9830.400390625,-9830.400390625,-9830.400390625,-148.1999969482422,-7411.5,-8196.599609375,-7310.7001953125,-7712.39990234375,-7437.89990234375,-9320.400390625,-9255.2998046875,-8.699999809265137,0.8999999761581421,-8905.2001953125,-4889.7001953125,-14.100000381469727,-9830.400390625,-7260.2998046875,-5994.0,0.0
2.126170774153708,6357.89990234375,4702.5,1193.0999755859375,2015.699951171875,3427.800048828125,3490.5,5581.7998046875,2644.199951171875,8299.2001953125,-9830.400390625,4441.7998046875,1787.699951171875,9830.099609375,9830.099609375,9830.099609375,9830.099609375,-8.399999618530273,2.0999999046325684,6601.7998046875,1903.800048828125,-13.800000190734863,-9448.7998046875,9830.099609375,9830.099609375,0.0
2.1391298489866952,7371.60009765625,7440.60009765625,9830.099609375,6003.89990234375,8388.599609375,8920.7998046875,7830.89990234375,9201.0,-27268.80078125,737.4000244140625,5980.5,5312.10009765625,-285.6000061035156,1152.0,3187.199951171875,2644.5,-8.699999809265137,1.2000000476837158,5414.7001953125,2999.39990234375,-14.399999618530273,5469.0,-1160.4000244140625,-7022.10009765625,0.0
2.1443658323375385,-8623.5,-4866.0,-3188.699951171875,-1446.300048828125,-7794.2998046875,-9703.7998046875,-9813.599609375,-9830.400390625,33789.6015625,9830.099609375,-9830.400390625,-9830.400390625,-9634.2001953125,-9830.400390625,-9830.400390625,-9830.400390625,-8.699999809265137,0.8999999761581421,-9830.400390625,-9830.400390625,-13.800000190734863,9830.099609375,-9830.400390625,-5520.0,0.0
2.1449811133121077,-2499.60009765625,-3546.300048828125,-766.5,-2879.699951171875,-672.9000244140625,253.5,-953.7000122070312,1462.800048828125,-29640.0,8748.0,3086.39990234375,5334.2998046875,-5336.39990234375,-4223.10009765625,-3479.39990234375,-3741.0,-8.399999618530273,0.6000000238418579,1254.9000244140625,5244.2998046875,-14.399999618530273,2708.10009765625,-3267.0,-6483.89990234375,0.0
2.1455518040596355,9031.7998046875,8944.5,7262.10009765625,8778.2998046875,8242.7998046875,7761.0,8565.900390625,7464.2998046875,26009.099609375,-7052.7001953125,8158.5,7684.5,9830.099609375,9830.099609375,9830.099609375,9830.099609375,-9.300000190734863,1.5,9154.2001953125,9209.7001953125,-13.800000190734863,-9830.400390625,9830.099609375,9830.099609375,0.0
2.1461725385152097,-9830.400390625,-9830.400390625,-9830.400390625,-9830.400390625,-9830.400390625,-9830.400390625,-9830.400390625,-9830.400390625,-21933.599609375,-9830.400390625,-9804.599609375,-9830.400390625,-9415.2001953125,-8412.900390625,-8946.2998046875,-9463.2001953125,-8.699999809265137,0.6000000238418579,-9311.400390625,-9830.400390625,-13.5,-9591.599609375,-9830.400390625,-9830.400390625,0.0
2.14885404720469,9532.2001953125,9186.900390625,9234.2998046875,8713.2001953125,9241.7998046875,9731.099609375,9830.099609375,9759.900390625,2741.699951171875,-2368.5,9830.099609375,9830.099609375,8823.900390625,9807.2998046875,9830.099609375,9824.400390625,-8.699999809265137,0.0,9830.099609375,8475.900390625,-14.100000381469727,3812.699951171875,8598.2998046875,6611.10009765625,0.0
2.149506219374293,-1993.5,-1140.300048828125,-522.9000244140625,-503.1000061035156,-1433.699951171875,-1898.699951171875,-2330.10009765625,-1970.4000244140625,9336.599609375,9830.099609375,-6844.2001953125,-6533.39990234375,-3621.60009765625,-4887.60009765625,-4783.7998046875,-4104.0,-8.399999618530273,0.6000000238418579,-6466.7998046875,-6834.89990234375,-13.800000190734863,9830.099609375,-4166.39990234375,-2125.800048828125,0.0
2.1500698526758146,-6106.2001953125,-6042.89990234375,-5819.7001953125,-5815.2001953125,-5684.10009765625,-5916.0,-6038.7001953125,-6114.60009765625,-15561.0,5013.0,-4401.89990234375,-2599.199951171875,-6204.0,-6196.2001953125,-6322.7998046875,-6394.5,-8.699999809265137,1.2000000476837158,-5317.2001953125,-1915.199951171875,-14.100000381469727,-1846.5,-5587.7998046875,-5678.10009765625,0.0
2.15069219109639,9830.099609375,9830.099609375,9830.099609375,9830.099609375,9830.099609375,9830.099609375,9830.099609375,9830.099609375,25638.599609375,-9407.099609375,9830.099609375,9830.099609375,9830.099609375,9830.099609375,9830.099609375,9830.099609375,-9.0,1.2000000476837158,9830.099609375,9830.099609375,-14.100000381469727,-9830.400390625,9830.099609375,9830.099609375,0.0
2.151247483779904,-9830.400390625,-9830.400390625,-9830.400390625,-9830.400390625,-9830.400390625,-9830.400390625,-9830.400390625,-9830.400390625,-34975.19921875,-9830.400390625,-8586.599609375,-9205.5,-9481.7998046875,-8568.2998046875,-8790.599609375,-9163.5,-8.699999809265137,0.6000000238418579,-8327.7001953125,-8700.900390625,-13.5,-9830.400390625,-9688.7998046875,-9830.400390625,0.0
2.1518075883584222,7404.89990234375,7588.2001953125,7301.39990234375,7440.0,6975.60009765625,6766.7998046875,7119.0,5966.7001953125,27787.5,-2227.5,3138.60009765625,915.2999877929688,7874.10009765625,7523.10009765625,7604.39990234375,7304.10009765625,-8.699999809265137,0.30000001192092896,4756.2001953125,-636.9000244140625,-14.100000381469727,3853.800048828125,6716.39990234375,7377.2998046875,0.0
2.1523648057999374,1096.199951171875,1359.0,2763.0,1691.4000244140625,2119.199951171875,2468.699951171875,1591.800048828125,3336.60009765625,-22230.0,9830.099609375,2391.60009765625,3952.199951171875,-2807.699951171875,-2866.800048828125,-1829.699951171875,-1594.199951171875,-9.0,0.8999999761581421,988.7999877929688,2890.800048828125,-13.5,9830.099609375,-2345.10009765625,-3023.10009765625,0.0
2.152914324209446,-8969.400390625,-8229.0,-8700.2998046875,-7341.89990234375,-8792.400390625,-9805.5,-9557.400390625,-9830.400390625,16672.5,6110.7001953125,-9830.400390625,-9830.400390625,-6969.89990234375,-7806.0,-8671.5,-8429.099609375,-8.100000381469727,0.30000001192092896,-9830.400390625,-9124.5,-14.100000381469727,857.7000122070312,-7054.5,-4487.10009765625,0.0
2.153457426758948,9830.099609375,9830.099609375,9830.099609375,9830.099609375,9830.099609375,9830.099609375,9830.099609375,9830.099609375,-1778.4000244140625,-9296.7001953125,9423.2998046875,9830.099609375,9830.099609375,9830.099609375,9830.099609375,9830.099609375,-9.0,1.5,9144.900390625,9830.099609375,-13.800000190734863,-9830.400390625,9830.099609375,9830.099609375,0.0
2.154137507919577,-4179.0,-7717.5,-9830.400390625,-9830.400390625,-7163.39990234375,-4839.2998046875,-3485.39990234375,-3230.10009765625,-17784.0,-9830.400390625,3561.89990234375,611.4000244140625,3445.5,6372.60009765625,5786.7001953125,4727.39990234375,-8.699999809265137,0.0,4679.39990234375,168.89999389648438,-13.800000190734863,-9830.400390625,2291.39990234375,-3818.39990234375,0.0
2.154742523518137,-4354.7998046875,-909.0,-472.20001220703125,-138.60000610351562,-4521.60009765625,-6457.7998046875,-6868.2001953125,-7676.39990234375,23119.19921875,-3134.10009765625,-9830.400390625,-9830.400390625,-4542.2998046875,-8872.2001953125,-9417.599609375,-8861.400390625,-8.699999809265137,0.8999999761581421,-9830.400390625,-9830.400390625,-14.100000381469727,4018.5,-9830.400390625,-3089.39990234375,0.0
2.1642543567699355,8688.0,8460.599609375,9830.099609375,8485.2001953125,9830.099609375,9830.099609375,9830.099609375,9830.099609375,-29491.80078125,9830.099609375,9747.900390625,9830.099609375,-5322.0,-5378.10009765625,-508.20001220703125,-757.5,-8.699999809265137,0.6000000238418579,8518.5,8565.900390625,-14.100000381469727,9830.099609375,-2820.300048828125,-6339.0,0.0
2.1686264445709793,-586.7999877929688,1820.0999755859375,1476.9000244140625,3409.5,461.3999938964844,-1685.4000244140625,-2222.39990234375,-2532.60009765625,35493.8984375,7772.39990234375,-8337.599609375,-5513.39990234375,-2193.0,-7378.7998046875,-7900.7998046875,-5806.2001953125,-9.0,1.2000000476837158,-8929.7998046875,-2845.5,-14.100000381469727,2912.699951171875,-2202.0,7527.0,0.0
2.1702997008605274,-9330.0,-9830.400390625,-9830.400390625,-9830.400390625,-9830.400390625,-8756.400390625,-8296.7998046875,-8027.10009765625,-28232.099609375,-7480.5,-222.89999389648438,-339.6000061035156,-7059.89990234375,-3789.0,-3809.10009765625,-5077.2001953125,-8.100000381469727,0.8999999761581421,-562.7999877929688,906.2999877929688,-14.100000381469727,-9830.400390625,-5297.10009765625,-9433.7998046875,0.0
2.1706577058488583,9830.099609375,9830.099609375,9830.099609375,9830.099609375,9830.099609375,9830.099609375,9830.099609375,9830.099609375,13115.7001953125,-9830.400390625,9830.099609375,9830.099609375,9830.099609375,9830.099609375,9830.099609375,9830.099609375,-9.0,1.5,9830.099609375,9830.099609375,-14.100000381469727,-7119.2998046875,9830.099609375,9830.099609375,0.0
2.1709611760271392,-8568.900390625,-8281.5,-8527.5,-8217.0,-8965.7998046875,-9098.7001953125,-8864.7001953125,-9184.5,-7187.7001953125,430.20001220703125,-9603.599609375,-9830.400390625,-8082.0,-7941.60009765625,-8053.5,-7978.2001953125,-8.399999618530273,0.6000000238418579,-8859.0,-9830.400390625,-13.5,8548.7998046875,-8724.599609375,-8565.2998046875,0.0
2.171764441699882,2050.800048828125,2499.300048828125,3593.39990234375,2764.800048828125,2856.89990234375,2874.300048828125,2307.0,2747.10009765625,-5483.39990234375,9830.099609375,401.1000061035156,1535.4000244140625,-873.2999877929688,-1776.300048828125,-990.9000244140625,-890.4000244140625,-8.399999618530273,0.6000000238418579,-628.7999877929688,87.5999984741211,-14.100000381469727,9830.099609375,-822.2999877929688,-151.5,0.0
2.1724188594204876,5194.2001953125,5437.5,5401.5,5809.5,5494.7998046875,5217.60009765625,5081.7001953125,5540.39990234375,21637.19921875,8320.2001953125,5185.5,6738.2998046875,4821.2998046875,4292.7001953125,4083.300048828125,4771.7998046875,-8.699999809265137,1.2000000476837158,4714.2001953125,8200.2001953125,-13.800000190734863,3529.800048828125,5407.5,5975.39990234375,0.0
2.1732946243112976,-9830.400390625,-9830.400390625,-9830.400390625,-9830.400390625,-9830.400390625,-9830.400390625,-9830.400390625,-9830.400390625,-28009.80078125,-6517.5,-9513.2998046875,-9830.400390625,-9520.2001953125,-8931.599609375,-9311.400390625,-9601.7998046875,-8.399999618530273,1.5,-9348.900390625,-8980.5,-14.100000381469727,-9830.400390625,-9205.7998046875,-9560.099609375,0.0
2.19444322364886,9830.099609375,9830.099609375,9830.099609375,9830.099609375,9830.099609375,9830.099609375,9830.099609375,9830.099609375,26527.80078125,-9830.400390625,9830.099609375,9830.099609375,9830.099609375,9830.099609375,9830.099609375,9830.099609375,-8.699999809265137,0.6000000238418579,9830.099609375,9830.099609375,-14.100000381469727,-8219.099609375,9830.099609375,9830.099609375,0.0
2.195413301681757,-6360.60009765625,-6641.39990234375,-6491.10009765625,-6872.7001953125,-6603.2998046875,-5981.7001953125,-6000.60009765625,-5269.5,-32381.69921875,5870.7001953125,-3839.39990234375,-5954.10009765625,-7109.7001953125,-5937.2998046875,-5283.60009765625,-5765.39990234375,-9.0,0.8999999761581421,-3529.5,-7236.60009765625,-13.5,7854.89990234375,-7012.7998046875,-8512.5,0.0
2.1963865876446578,-1195.5,333.29998779296875,1075.800048828125,1229.4000244140625,-324.29998779296875,-1606.199951171875,-2013.0,-2769.60009765625,26231.400390625,9830.099609375,-9141.2998046875,-6926.7001953125,-2729.699951171875,-5630.7001953125,-6035.39990234375,-4929.2998046875,-8.399999618530273,-0.30000001192092896,-9369.0,-6516.60009765625,-13.800000190734863,9830.099609375,-3829.5,92.69999694824219,0.0
2.1975055136296926,7675.7998046875,7057.2001953125,7284.2998046875,6961.2001953125,8048.10009765625,8692.7998046875,8401.5,9563.7001953125,-10744.5,8820.900390625,9830.099609375,9830.099609375,5378.7001953125,6296.10009765625,7197.2998046875,7253.39990234375,-9.0,1.5,9830.099609375,9830.099609375,-13.800000190734863,4000.800048828125,7654.7998046875,5274.60009765625,0.0
2.198304929786432,-9830.400390625,-9830.400390625,-9830.400390625,-9830.400390625,-9830.400390625,-9830.400390625,-9830.400390625,-9830.400390625,-1111.5,-7571.39990234375,-8166.2998046875,-7238.10009765625,-7874.39990234375,-7537.2001953125,-9367.2001953125,-9288.599609375,-9.0,0.8999999761581421,-8857.7998046875,-4899.0,-13.5,-9830.400390625,-7455.0,-6322.7998046875,0.0
2.1992794989213333,6597.2998046875,5203.5,1650.300048828125,2591.699951171875,3720.0,3783.300048828125,5730.60009765625,2760.89990234375,9336.599609375,-9830.400390625,4390.7998046875,1709.0999755859375,9830.099609375,9830.099609375,9830.099609375,9830.099609375,-8.100000381469727,1.2000000476837158,6597.0,1898.4000244140625,-14.399999618530273,-9352.5,9830.099609375,9830.099609375,0.0
2.200230008581213,7035.2998046875,7223.10009765625,9830.099609375,5790.0,8076.60009765625,8716.5,7571.39990234375,8976.900390625,-27639.30078125,842.4000244140625,5894.7001953125,5298.0,-779.4000244140625,781.2000122070312,2871.300048828125,2328.300048828125,-9.0,1.2000000476837158,5272.7998046875,2952.300048828125,-14.100000381469727,5577.60009765625,-1532.0999755859375,-7352.7001953125,0.0
2.2013412355342408,-8711.7001953125,-4899.0,-3083.10009765625,-1277.0999755859375,-7872.2998046875,-9744.0,-9830.400390625,-9830.400390625,34234.19921875,9830.099609375,-9830.400390625,-9830.400390625,-9740.7001953125,-9830.400390625,-9830.400390625,-9830.400390625,-8.699999809265137,1.2000000476837158,-9830.400390625,-9830.400390625,-14.100000381469727,9830.099609375,-9830.400390625,-5515.2001953125,0.0
2.202408513846228,-2465.10009765625,-3520.5,-683.0999755859375,-2757.89990234375,-624.2999877929688,312.29998779296875,-901.2000122070312,1514.4000244140625,-29491.80078125,8629.2001953125,3155.699951171875,5460.89990234375,-5356.2001953125,-4203.2998046875,-3425.39990234375,-3721.800048828125,-8.699999809265137,0.30000001192092896,1343.0999755859375,5328.2998046875,-14.100000381469727,2345.10009765625,-3243.300048828125,-6489.2998046875,0.0
2.203365118573113,9080.7001953125,9007.7998046875,7205.10009765625,8772.599609375,8282.099609375,7827.89990234375,8573.7001953125,7433.39990234375,25490.400390625,-7216.2001953125,8137.2001953125,7629.2998046875,9830.099609375,9830.099609375,9830.099609375,9830.099609375,-9.0,1.5,9145.5,9152.7001953125,-14.100000381469727,-9830.400390625,9830.099609375,9830.099609375,0.0
2.2041950100648804,-9830.400390625,-9830.400390625,-9830.400390625,-9830.400390625,-9830.400390625,-9830.400390625,-9830.400390625,-9830.400390625,-20822.099609375,-9830.400390625,-9830.400390625,-9830.400390625,-9354.599609375,-8399.400390625,-8909.099609375,-9443.099609375,-8.699999809265137,1.2000000476837158,-9377.400390625,-9830.400390625,-13.800000190734863,-9515.7001953125,-9830.400390625,-9830.400390625,0.0
2.20510253346272,9460.5,9119.099609375,9189.0,8628.2998046875,9162.0,9672.2998046875,9810.0,9710.400390625,2074.800048828125,-2217.0,9830.099609375,9830.099609375,8667.0,9691.5,9830.099609375,9711.2998046875,-8.699999809265137,0.8999999761581421,9830.099609375,8447.7001953125,-14.100000381469727,4015.800048828125,8443.7998046875,6447.60009765625,0.0
2.2059959419685464,-1896.0,-987.9000244140625,-389.3999938964844,-349.79998779296875,-1311.9000244140625,-1786.800048828125,-2210.10009765625,-1883.0999755859375,10299.900390625,9830.099609375,-6843.60009765625,-6461.7001953125,-3512.10009765625,-4812.0,-4718.10009765625,-4025.10009765625,-8.699999809265137,0.6000000238418579,-6493.5,-6755.7001953125,-13.800000190734863,9830.099609375,-4036.5,-1914.9000244140625,0.0
2.2068155680843042,-6225.60009765625,-6160.2001953125,-5982.2998046875,-5949.2998046875,-5833.5,-6018.0,-6174.0,-6208.7998046875,-16450.19921875,4660.7998046875,-4360.5,-2637.60009765625,-6297.89990234375,-6259.5,-6379.7998046875,-6475.5,-8.399999618530273,0.30000001192092896,-5254.5,-1930.5,-14.399999618530273,-2137.800048828125,-5699.7001953125,-5820.2998046875,0.0
2.2075347859909695,9830.099609375,9830.099609375,9830.099609375,9830.099609375,9830.099609375,9830.099609375,9830.099609375,9830.099609375,26083.19921875,-9509.7001953125,9830.099609375,9830.099609375,9830.099609375,9830.099609375,9830.099609375,9830.099609375,-8.699999809265137,0.8999999761581421,9830.099609375,9830.099609375,-13.800000190734863,-9830.400390625,9830.099609375,9830.099609375,0.0
2.208550095836909,-9830.400390625,-9830.400390625,-9830.400390625,-9830.400390625,-9830.400390625,-9830.400390625,-9830.400390625,-9830.400390625,-35197.5,-9830.400390625,-8584.7998046875,-9193.7998046875,-9460.2001953125,-8557.7998046875,-8799.0,-9142.7998046875,-8.699999809265137,0.6000000238418579,-8337.599609375,-8691.0,-13.800000190734863,-9830.400390625,-9663.900390625,-9830.400390625,0.0
2.210792438908983,7291.2001953125,7478.39990234375,7236.0,7332.89990234375,6877.5,6692.7001953125,7030.7998046875,5892.2998046875,27342.900390625,-1960.800048828125,3091.199951171875,911.7000122070312,7720.5,7356.60009765625,7439.7001953125,7167.89990234375,-8.699999809265137,0.8999999761581421,4653.0,-688.2000122070312,-14.399999618530273,4107.0,6528.89990234375,7217.7001953125,0.0
2.21219494590628,1184.4000244140625,1469.4000244140625,2813.39990234375,1764.300048828125,2161.800048828125,2517.0,1645.5,3385.199951171875,-21637.19921875,9830.099609375,2420.10009765625,3959.699951171875,-2643.89990234375,-2749.199951171875,-1736.699951171875,-1480.199951171875,-9.0,0.6000000238418579,998.7000122070312,2974.800048828125,-13.5,9830.099609375,-2170.199951171875,-2805.0,0.0
2.212835890320873,-9043.7998046875,-8334.900390625,-8784.900390625,-7492.5,-8895.900390625,-9830.400390625,-9602.400390625,-9830.400390625,15709.2001953125,6059.10009765625,-9830.400390625,-9830.400390625,-7062.2998046875,-7866.2998046875,-8715.599609375,-8504.099609375,-8.699999809265137,0.8999999761581421,-9830.400390625,-9114.900390625,-14.100000381469727,733.5,-7173.0,-4676.10009765625,0.0
2.2135679399475503,9830.099609375,9830.099609375,9830.099609375,9830.099609375,9830.099609375,9830.099609375,9830.099609375,9830.099609375,-1037.4000244140625,-9337.2001953125,9494.099609375,9830.099609375,9830.099609375,9830.099609375,9830.099609375,9830.099609375,-8.399999618530273,1.7999999523162842,9192.900390625,9830.099609375,-14.100000381469727,-9830.400390625,9830.099609375,9830.099609375,0.0
2.214334314425259,-4613.39990234375,-8053.2001953125,-9830.400390625,-9830.400390625,-7357.2001953125,-4971.2998046875,-3741.0,-3380.10009765625,-18747.30078125,-9830.400390625,3480.300048828125,509.70001220703125,2855.39990234375,5934.60009765625,5374.5,4231.2001953125,-8.699999809265137,0.8999999761581421,4533.2998046875,0.6000000238418579,-13.800000190734863,-9830.400390625,1641.5999755859375,-4475.7001953125,0.0
2.215109029520976,-4223.10009765625,-711.0,-171.60000610351562,183.0,-4271.7001953125,-6165.60009765625,-6646.7998046875,-7415.7001953125,23712.0,-3002.39990234375,-9830.400390625,-9830.400390625,-4484.39990234375,-8995.2001953125,-9500.400390625,-8948.7001953125,-8.399999618530273,0.8999999761581421,-9830.400390625,-9830.400390625,-14.100000381469727,4315.7998046875,-9830.400390625,-2891.10009765625,0.0
2.2159225605697284,8725.2001953125,8558.400390625,9830.099609375,8671.7998046875,9830.099609375,9830.099609375,9830.099609375,9830.099609375,-29788.19921875,9830.099609375,9819.900390625,9830.099609375,-5591.39990234375,-5658.2998046875,-745.2000122070312,-982.2000122070312,-8.699999809265137,1.2000000476837158,8511.2998046875,8616.2998046875,-14.100000381469727,9830.099609375,-3019.800048828125,-6657.60009765625,0.0
2.216742507478487,-712.2000122070312,1719.9000244140625,1360.199951171875,3330.60009765625,356.3999938964844,-1761.300048828125,-2347.5,-2602.5,35049.30078125,7634.7001953125,-8289.599609375,-5428.5,-2371.5,-7578.0,-8073.0,-6026.10009765625,-8.699999809265137,1.5,-8931.0,-2744.699951171875,-13.800000190734863,2811.0,-2273.10009765625,7573.2001953125,0.0
2.2174957294431836,-9388.5,-9830.400390625,-9830.400390625,-9830.400390625,-9830.400390625,-8796.0,-8340.599609375,-8035.5,-28009.80078125,-7531.5,-164.39999389648438,-286.20001220703125,-7028.7001953125,-3739.800048828125,-3746.699951171875,-5042.10009765625,-8.399999618530273,0.8999999761581421,-535.7999877929688,982.5,-14.100000381469727,-9830.400390625,-5286.2998046875,-9468.900390625,0.0
2.2182338741368666,9830.099609375,9830.099609375,9830.099609375,9830.099609375,9830.099609375,9830.099609375,9830.099609375,9830.099609375,11930.099609375,-9830.400390625,9830.099609375,9830.099609375,9830.099609375,9830.099609375,9830.099609375,9830.099609375,-8.699999809265137,0.6000000238418579,9830.099609375,9830.099609375,-14.100000381469727,-6869.39990234375,9830.099609375,9830.099609375,0.0
2.2190028149585777,-8484.0,-8157.0,-8426.099609375,-8107.2001953125,-8871.599609375,-9025.7998046875,-8776.2001953125,-9135.599609375,-6372.60009765625,1026.0,-9597.0,-9830.400390625,-7998.60009765625,-7907.39990234375,-8024.10009765625,-7964.39990234375,-8.699999809265137,1.2000000476837158,-8867.400390625,-9830.400390625,-13.5,8677.2001953125,-8666.400390625,-8496.900390625,0.0
2.2414634576673538,1953.9000244140625,2368.199951171875,3472.5,2637.300048828125,2763.300048828125,2781.0,2166.300048828125,2646.60009765625,-6446.7001953125,9830.099609375,353.70001220703125,1516.5,-1030.800048828125,-1907.699951171875,-1139.0999755859375,-1054.800048828125,-8.399999618530273,1.2000000476837158,-706.7999877929688,56.70000076293945,-14.100000381469727,9830.099609375,-942.0,-308.1000061035156,0.0
2.242213792495048,5326.2001953125,5600.7001953125,5524.7998046875,5950.5,5577.0,5334.0,5206.2001953125,5616.89990234375,22304.099609375,8184.2998046875,5298.2998046875,6841.2001953125,5000.7001953125,4473.0,4263.2998046875,4932.60009765625,-9.0,0.6000000238418579,4822.2001953125,8319.900390625,-14.100000381469727,3326.10009765625,5586.60009765625,6135.2998046875,0.0
2.2429291608857094,-9830.400390625,-9830.400390625,-9830.400390625,-9830.400390625,-9830.400390625,-9830.400390625,-9830.400390625,-9830.400390625,-28528.5,-6842.7001953125,-9540.900390625,-9830.400390625,-9568.5,-8973.599609375,-9344.400390625,-9656.7001953125,-8.399999618530273,0.0,-9378.2998046875,-9032.7001953125,-13.800000190734863,-9830.400390625,-9237.599609375,-9614.7001953125,0.0
2.243726331491447,9830.099609375,9830.099609375,9830.099609375,9830.099609375,9830.099609375,9830.099609375,9830.099609375,9830.099609375,26601.900390625,-9830.400390625,9830.099609375,9830.099609375,9830.099609375,9830.099609375,9830.099609375,9830.099609375,-8.699999809265137,0.8999999761581421,9830.099609375,9830.099609375,-14.100000381469727,-8124.60009765625,9830.099609375,9830.099609375,0.0
2.244455814774122,-6280.2001953125,-6520.5,-6377.10009765625,-6776.10009765625,-6496.2001953125,-5914.5,-5934.60009765625,-5181.89990234375,-31863.0,5838.0,-3909.89990234375,-5963.10009765625,-7018.5,-5916.89990234375,-5260.7998046875,-5726.39990234375,-8.699999809265137,0.6000000238418579,-3581.39990234375,-7266.0,-14.100000381469727,7923.0,-6968.10009765625,-8397.599609375,0.0
2.245245286347852,-1291.5,212.10000610351562,961.2000122070312,1068.0,-457.79998779296875,-1649.699951171875,-2123.10009765625,-2858.699951171875,25638.599609375,9830.099609375,-9086.7001953125,-6873.60009765625,-2827.800048828125,-5662.7998046875,-6047.10009765625,-4986.60009765625,-8.699999809265137,0.8999999761581421,-9321.599609375,-6475.2001953125,-14.100000381469727,9830.099609375,-3882.89990234375,-34.20000076293945,0.0
2.24595680522251,7752.60009765625,7191.60009765625,7383.89990234375,7110.60009765625,8140.5,8725.5,8471.7001953125,9599.7001953125,-10003.5,8699.7001953125,9830.099609375,9830.099609375,5599.2001953125,6509.7001953125,7328.39990234375,7392.60009765625,-8.399999618530273,1.7999999523162842,9830.099609375,9830.099609375,-13.800000190734863,3801.60009765625,7820.39990234375,5515.7998046875,0.0
2.2466955915021933,-9830.400390625,-9830.400390625,-9830.400390625,-9830.400390625,-9830.400390625,-9830.400390625,-9830.400390625,-9830.400390625,-2148.89990234375,-7693.2001953125,-8123.7001953125,-7280.39990234375,-7996.2001953125,-7618.5,-9399.2998046875,-9376.7998046875,-8.699999809265137,0.6000000238418579,-8763.599609375,-5099.10009765625,-14.100000381469727,-9830.400390625,-7623.89990234375,-6641.7001953125,0.0
2.2473538587388022,6782.10009765625,5637.60009765625,2104.199951171875,3115.199951171875,4037.699951171875,3938.10009765625,5925.89990234375,2991.89990234375,10003.5,-9830.400390625,4481.39990234375,1746.0,9830.099609375,9830.099609375,9830.099609375,9830.099609375,-8.399999618530273,1.5,6704.7001953125,1773.5999755859375,-14.100000381469727,-9254.099609375,9830.099609375,9830.099609375,0.0
2.267775220344692,6780.0,7075.2001953125,9830.099609375,5598.0,7830.2998046875,8499.0,7329.89990234375,8830.5,-28158.0,990.5999755859375,5844.0,5217.60009765625,-1081.800048828125,535.2000122070312,2695.800048828125,2080.199951171875,-9.0,0.8999999761581421,5220.0,2813.699951171875,-13.800000190734863,5682.2998046875,-1785.0,-7654.5,0.0
2.2687077655965546,-8739.599609375,-4795.7998046875,-2784.60009765625,-1019.7000122070312,-7860.60009765625,-9820.5,-9830.400390625,-9830.400390625,34456.5,9830.099609375,-9830.400390625,-9830.400390625,-9812.099609375,-9830.400390625,-9830.400390625,-9830.400390625,-8.699999809265137,0.6000000238418579,-9830.400390625,-9830.400390625,-14.100000381469727,9830.099609375,-9830.400390625,-5472.2998046875,0.0
2.2696913169354644,-2482.800048828125,-3567.60009765625,-590.0999755859375,-2739.0,-632.7000122070312,301.5,-959.4000244140625,1525.5,-29491.80078125,8499.900390625,3155.10009765625,5490.60009765625,-5351.10009765625,-4201.2001953125,-3376.800048828125,-3707.39990234375,-8.399999618530273,0.8999999761581421,1371.5999755859375,5400.89990234375,-14.100000381469727,1971.0,-3213.0,-6537.89990234375,0.0
2.270728440705424,9157.5,9068.400390625,7245.0,8786.099609375,8311.2001953125,7838.39990234375,8621.7001953125,7481.39990234375,24971.69921875,-7392.60009765625,8196.599609375,7646.39990234375,9830.099609375,9830.099609375,9830.099609375,9830.099609375,-8.699999809265137,1.2000000476837158,9254.400390625,9143.400390625,-14.100000381469727,-9830.400390625,9830.099609375,9830.099609375,0.0
2.2742026288986374,-9830.400390625,-9830.400390625,-9830.400390625,-9830.400390625,-9830.400390625,-9830.400390625,-9830.400390625,-9830.400390625,-20229.30078125,-9830.400390625,-9830.400390625,-9830.400390625,-9335.099609375,-8340.599609375,-8875.7998046875,-9420.2998046875,-8.399999618530273,1.5,-9352.2001953125,-9830.400390625,-14.100000381469727,-9450.599609375,-9830.400390625,-9830.400390625,0.0
2.2752888339976423,9418.7998046875,9049.7998046875,9129.900390625,8552.7001953125,9103.2001953125,9635.099609375,9764.400390625,9687.599609375,1185.5999755859375,-2066.39990234375,9830.099609375,9830.099609375,8532.0,9597.900390625,9830.099609375,9618.900390625,-8.699999809265137,0.6000000238418579,9830.099609375,8358.900390625,-14.100000381469727,4230.89990234375,8263.5,6274.5,0.0
2.276283933884563,-1771.199951171875,-877.5,-267.8999938964844,-223.1999969482422,-1182.0,-1683.300048828125,-2130.0,-1770.300048828125,11115.0,9830.099609375,-6826.5,-6420.89990234375,-3372.60009765625,-4747.5,-4657.7998046875,-3937.5,-8.699999809265137,1.7999999523162842,-6451.2001953125,-6663.60009765625,-14.100000381469727,9830.099609375,-3930.0,-1771.199951171875,0.0
2.277553311786737,-6325.5,-6290.39990234375,-6075.89990234375,-6072.89990234375,-5952.89990234375,-6126.60009765625,-6262.7998046875,-6264.89990234375,-17265.30078125,4317.89990234375,-4295.10009765625,-2639.39990234375,-6375.89990234375,-6299.7001953125,-6417.2998046875,-6534.0,-8.399999618530273,0.30000001192092896,-5212.2001953125,-1949.4000244140625,-14.100000381469727,-2298.300048828125,-5771.10009765625,-5949.89990234375,0.0
2.2784935560706066,9830.099609375,9830.099609375,9830.099609375,9830.099609375,9830.099609375,9830.099609375,9830.099609375,9830.099609375,26305.5,-9598.2001953125,9830.099609375,9830.099609375,9830.099609375,9830.099609375,9830.099609375,9830.099609375,-9.0,0.8999999761581421,9830.099609375,9830.099609375,-14.100000381469727,-9830.400390625,9830.099609375,9830.099609375,0.0
2.3038252961320382,-9830.400390625,-9830.400390625,-9830.400390625,-9830.400390625,-9830.400390625,-9830.400390625,-9830.400390625,-9830.400390625,-35049.30078125,-9830.400390625,-8579.7001953125,-9195.900390625,-9441.599609375,-8528.7001953125,-8759.400390625,-9114.0,-8.699999809265137,0.8999999761581421,-8349.599609375,-8673.900390625,-13.5,-9830.400390625,-9657.0,-9830.400390625,0.0
2.3047725978619145,7180.2001953125,7377.2998046875,7145.7001953125,7225.2001953125,6779.7001953125,6594.0,6886.2001953125,5799.89990234375,27342.900390625,-1703.0999755859375,2873.39990234375,837.9000244140625,7573.2001953125,7168.7998046875,7280.39990234375,7026.0,-8.399999618530273,0.8999999761581421,4424.7001953125,-768.0,-14.100000381469727,4286.7001953125,6350.7001953125,7068.89990234375,0.0
2.305768980920836,1321.199951171875,1627.800048828125,2968.199951171875,1932.0,2296.199951171875,2644.199951171875,1735.800048828125,3448.199951171875,-20748.0,9830.099609375,2505.60009765625,4031.10009765625,-2443.199951171875,-2551.199951171875,-1564.5,-1311.0,-9.0,0.6000000238418579,1145.4000244140625,3091.800048828125,-13.800000190734863,9830.099609375,-1984.800048828125,-2509.199951171875,0.0
2.3068555068128416,-9090.900390625,-8420.400390625,-8873.7001953125,-7631.39990234375,-8979.2998046875,-9830.400390625,-9678.2998046875,-9830.400390625,15116.400390625,5910.0,-9830.400390625,-9830.400390625,-7163.10009765625,-7909.2001953125,-8760.2998046875,-8550.2998046875,-8.100000381469727,0.30000001192092896,-9830.400390625,-9149.7001953125,-13.800000190734863,557.7000122070312,-7271.7001953125,-4883.39990234375,0.0
2.307885573136794,9830.099609375,9830.099609375,9830.099609375,9830.099609375,9830.099609375,9830.099609375,9830.099609375,9830.099609375,-148.1999969482422,-9416.7001953125,9542.7001953125,9830.099609375,9830.099609375,9830.099609375,9830.099609375,9830.099609375,-9.0,1.2000000476837158,9266.400390625,9830.099609375,-13.800000190734863,-9830.400390625,9830.099609375,9830.099609375,0.0
2.3089140354957456,-4886.10009765625,-8134.2001953125,-9830.400390625,-9830.400390625,-7421.7001953125,-5125.5,-3954.89990234375,-3479.10009765625,-19340.099609375,-9830.400390625,3385.5,391.79998779296875,2396.39990234375,5581.5,5022.60009765625,3837.89990234375,-9.0,0.8999999761581421,4467.2998046875,-122.4000015258789,-13.800000190734863,-9738.900390625,1168.199951171875,-4987.5,0.0
2.3099995990087496,-4068.300048828125,-548.4000244140625,7.199999809265137,381.8999938964844,-4020.0,-5961.0,-6503.39990234375,-7248.89990234375,24082.5,-2811.300048828125,-9830.400390625,-9830.400390625,-4420.5,-9100.2001953125,-9597.900390625,-8963.400390625,-9.0,1.7999999523162842,-9830.400390625,-9830.400390625,-14.100000381469727,4658.10009765625,-9830.400390625,-2733.0,0.0
2.311120770544787,8895.0,8694.2998046875,9830.099609375,8801.099609375,9830.099609375,9830.099609375,9830.099609375,9830.099609375,-30158.69921875,9830.099609375,9780.2998046875,9830.099609375,-5624.39990234375,-5665.5,-760.2000122070312,-1050.300048828125,-8.399999618530273,0.6000000238418579,8480.099609375,8649.2998046875,-13.800000190734863,9830.099609375,-3120.300048828125,-6789.0,0.0
2.3122210905358047,-849.9000244140625,1612.199951171875,1230.9000244140625,3306.60009765625,292.5,-1865.0999755859375,-2469.89990234375,-2692.800048828125,34827.0,7512.2998046875,-8242.2001953125,-5447.7001953125,-2413.199951171875,-7617.89990234375,-8171.39990234375,-6137.7001953125,-9.0,1.2000000476837158,-8939.099609375,-2662.5,-13.800000190734863,2653.199951171875,-2289.0,7743.0,0.0
2.3500740229848187,-9361.7998046875,-9830.400390625,-9830.400390625,-9830.400390625,-9830.400390625,-8798.099609375,-8331.599609375,-8022.2998046875,-27565.19921875,-7579.2001953125,-190.8000030517578,-296.3999938964844,-6931.5,-3579.0,-3639.60009765625,-4950.89990234375,-8.100000381469727,0.8999999761581421,-522.2999877929688,1015.7999877929688,-14.100000381469727,-9830.400390625,-5203.5,-9334.5,0.0
2.350924124435605,9830.099609375,9830.099609375,9830.099609375,9830.099609375,9830.099609375,9830.099609375,9830.099609375,9830.099609375,11263.2001953125,-9830.400390625,9830.099609375,9830.099609375,9830.099609375,9830.099609375,9830.099609375,9830.099609375,-9.0,1.7999999523162842,9830.099609375,9830.099609375,-14.100000381469727,-6644.10009765625,9830.099609375,9830.099609375,0.0
2.351887786608496,-8404.7998046875,-8056.5,-8318.099609375,-7991.7001953125,-8783.099609375,-8950.5,-8732.400390625,-9078.2998046875,-5409.2998046875,1675.199951171875,-9615.0,-9830.400390625,-7912.7998046875,-7810.5,-7959.0,-7900.7998046875,-8.699999809265137,0.6000000238418579,-8854.2001953125,-9830.400390625,-13.5,8786.099609375,-8612.400390625,-8356.5,0.0
2.3529223440344533,1797.9000244140625,2231.39990234375,3336.89990234375,2481.0,2628.60009765625,2647.800048828125,2043.9000244140625,2514.89990234375,-7113.60009765625,9830.099609375,303.0,1465.800048828125,-1213.800048828125,-2079.60009765625,-1280.4000244140625,-1209.300048828125,-8.100000381469727,0.6000000238418579,-796.7999877929688,62.099998474121094,-13.800000190734863,9830.099609375,-1122.0,-489.0,0.0
2.353852964528314,5452.2001953125,5703.89990234375,5615.7001953125,6042.60009765625,5696.39990234375,5436.89990234375,5285.39990234375,5736.0,22896.900390625,8035.2001953125,5369.7001953125,6900.0,5171.39990234375,4647.89990234375,4420.7998046875,5064.60009765625,-9.0,2.0999999046325684,4969.5,8388.0,-14.100000381469727,3145.5,5738.7001953125,6314.7001953125,0.0
2.3546770817460763,-9830.400390625,-9830.400390625,-9830.400390625,-9830.400390625,-9830.400390625,-9830.400390625,-9830.400390625,-9830.400390625,-28899.0,-7173.89990234375,-9575.7001953125,-9830.400390625,-9626.7001953125,-9018.900390625,-9389.099609375,-9699.0,-8.399999618530273,0.0,-9403.7998046875,-9100.5,-13.800000190734863,-9830.400390625,-9312.0,-9700.2001953125,0.0
2.3553106479216623,9830.099609375,9830.099609375,9830.099609375,9830.099609375,9830.099609375,9830.099609375,9830.099609375,9830.099609375,26676.0,-9830.400390625,9830.099609375,9830.099609375,9830.099609375,9830.099609375,9830.099609375,9830.099609375,-8.699999809265137,0.8999999761581421,9830.099609375,9830.099609375,-14.399999618530273,-7989.2998046875,9830.099609375,9830.099609375,0.0
2.3560263371053245,-6174.2998046875,-6412.5,-6234.2998046875,-6654.89990234375,-6376.7998046875,-5796.60009765625,-5839.7998046875,-5083.2001953125,-31640.69921875,5806.7998046875,-3936.300048828125,-5986.7998046875,-6927.89990234375,-5861.7001953125,-5205.2998046875,-5667.60009765625,-9.0,1.2000000476837158,-3568.199951171875,-7263.89990234375,-13.800000190734863,8018.10009765625,-6885.0,-8259.599609375,0.0
2.35673528963598,-1420.199951171875,52.20000076293945,812.7000122070312,884.7000122070312,-565.7999877929688,-1751.0999755859375,-2186.699951171875,-2880.89990234375,24823.5,9830.099609375,-9078.900390625,-6831.89990234375,-2934.300048828125,-5709.60009765625,-6099.0,-5054.7001953125,-8.699999809265137,1.5,-9323.400390625,-6403.2001953125,-14.399999618530273,9830.099609375,-3958.5,-222.89999389648438,0.0
2.3687326270540776,7874.10009765625,7336.5,7513.7998046875,7246.7998046875,8219.7001953125,8798.400390625,8575.5,9613.2001953125,-9188.400390625,8580.900390625,9830.099609375,9830.099609375,5845.5,6753.2998046875,7532.39990234375,7574.7001953125,-9.0,0.6000000238418579,9830.099609375,9830.099609375,-13.800000190734863,3543.300048828125,7980.89990234375,5767.7998046875,0.0
2.36900562189733,-9830.400390625,-9830.400390625,-9830.400390625,-9830.400390625,-9830.400390625,-9830.400390625,-9830.400390625,-9830.400390625,-2889.89990234375,-7817.10009765625,-8086.7998046875,-7260.89990234375,-8111.10009765625,-7652.7001953125,-9386.400390625,-9369.900390625,-9.0,1.2000000476837158,-8769.599609375,-5084.10009765625,-13.5,-9830.400390625,-7687.2001953125,-6871.5,0.0
2.3692699553295746,6982.2001953125,6009.89990234375,2612.10009765625,3723.300048828125,4354.7998046875,4175.7001953125,6114.60009765625,3139.5,10966.7998046875,-9830.400390625,4485.60009765625,1697.699951171875,9830.099609375,9830.099609375,9830.099609375,9830.099609375,-8.399999618530273,0.8999999761581421,6712.5,1642.800048828125,-13.800000190734863,-9167.7001953125,9830.099609375,9830.099609375,0.0
2.369532684796818,6457.2001953125,6790.5,9583.2001953125,5473.7998046875,7604.10009765625,8274.2998046875,7086.89990234375,8637.900390625,-28602.599609375,1116.5999755859375,5760.60009765625,5196.0,-1512.9000244140625,234.0,2403.0,1746.9000244140625,-8.699999809265137,1.5,5080.5,2763.89990234375,-13.800000190734863,5780.10009765625,-2062.800048828125,-7964.39990234375,0.0
2.3697950934710605,-8882.7001953125,-4758.60009765625,-2743.199951171875,-888.5999755859375,-7902.89990234375,-9830.400390625,-9830.400390625,-9830.400390625,34901.1015625,9830.099609375,-9830.400390625,-9830.400390625,-9830.400390625,-9830.400390625,-9830.400390625,-9830.400390625,-8.699999809265137,0.8999999761581421,-9830.400390625,-9830.400390625,-13.800000190734863,9830.099609375,-9830.400390625,-5484.0,0.0
2.3700542942153002,-2428.800048828125,-3506.10009765625,-512.0999755859375,-2464.199951171875,-500.3999938964844,431.3999938964844,-857.0999755859375,1629.0,-29195.400390625,8374.7998046875,3210.300048828125,5586.2998046875,-5347.2001953125,-4140.2998046875,-3341.39990234375,-3692.10009765625,-8.399999618530273,0.8999999761581421,1388.4000244140625,5510.7001953125,-14.100000381469727,1639.199951171875,-3137.39990234375,-6486.2998046875,0.0
2.3703160613035426,9171.599609375,9093.0,7176.2998046875,8736.900390625,8301.599609375,7834.2001953125,8640.900390625,7447.5,24601.19921875,-7551.2998046875,8214.599609375,7563.0,9830.099609375,9830.099609375,9830.099609375,9830.099609375,-9.0,0.6000000238418579,9269.7001953125,9088.2001953125,-13.800000190734863,-9830.400390625,9830.099609375,9830.099609375,0.0
2.3705778283917844,-9830.400390625,-9830.400390625,-9830.400390625,-9830.400390625,-9830.400390625,-9830.400390625,-9830.400390625,-9830.400390625,-19562.400390625,-9830.400390625,-9830.400390625,-9830.400390625,-9291.0,-8327.400390625,-8858.7001953125,-9424.5,-8.699999809265137,0.8999999761581421,-9410.400390625,-9830.400390625,-13.800000190734863,-9377.099609375,-9830.400390625,-9830.400390625,0.0
2.3709130570770944,9355.2001953125,8981.099609375,9109.7998046875,8490.900390625,9069.0,9588.900390625,9738.900390625,9648.900390625,444.6000061035156,-1914.5999755859375,9830.099609375,9830.099609375,8370.599609375,9478.2001953125,9830.099609375,9535.7998046875,-9.0,2.0999999046325684,9830.099609375,8270.099609375,-14.100000381469727,4437.0,8127.0,6095.7001953125,0.0
2.3711735409933357,-1679.4000244140625,-743.7000122070312,-123.30000305175781,-68.4000015258789,-1075.199951171875,-1593.5999755859375,-2032.800048828125,-1707.300048828125,12078.2998046875,9830.099609375,-6820.7998046875,-6363.60009765625,-3262.199951171875,-4644.60009765625,-4594.5,-3852.89990234375,-8.699999809265137,1.5,-6453.89990234375,-6571.5,-13.800000190734863,9830.099609375,-3807.60009765625,-1605.5999755859375,0.0
2.3714337041165763,-6421.2001953125,-6407.7001953125,-6201.89990234375,-6204.89990234375,-6051.60009765625,-6220.5,-6325.2001953125,-6350.10009765625,-17784.0,3950.10009765625,-4294.2001953125,-2634.0,-6484.5,-6388.2001953125,-6473.10009765625,-6596.10009765625,-8.699999809265137,-0.30000001192092896,-5190.2998046875,-1965.9000244140625,-13.800000190734863,-2524.199951171875,-5863.7998046875,-6065.10009765625,0.0
2.371696433583819,9830.099609375,9830.099609375,9830.099609375,9830.099609375,9830.099609375,9830.099609375,9830.099609375,9830.099609375,26824.19921875,-9678.900390625,9830.099609375,9830.099609375,9830.099609375,9830.099609375,9830.099609375,9830.099609375,-8.699999809265137,2.0999999046325684,9830.099609375,9830.099609375,-14.100000381469727,-9830.400390625,9830.099609375,9830.099609375,0.0
2.3719553135350586,-9830.400390625,-9830.400390625,-9830.400390625,-9830.400390625,-9830.400390625,-9830.400390625,-9830.400390625,-9830.400390625,-35123.3984375,-9830.400390625,-8558.099609375,-9175.7998046875,-9391.7998046875,-8510.7001953125,-8737.7998046875,-9071.099609375,-8.699999809265137,1.2000000476837158,-8292.599609375,-8670.0,-13.5,-9830.400390625,-9604.7998046875,-9830.400390625,0.0
2.372214193486298,7071.89990234375,7282.2001953125,7071.0,7160.10009765625,6701.39990234375,6516.89990234375,6803.39990234375,5697.60009765625,27120.599609375,-1410.5999755859375,2843.10009765625,822.2999877929688,7408.5,7015.2001953125,7123.2001953125,6856.5,-8.699999809265137,1.2000000476837158,4343.10009765625,-883.5,-13.800000190734863,4511.7001953125,6218.10009765625,6923.10009765625,0.0
2.3724721110585367,1453.800048828125,1720.199951171875,3045.300048828125,2055.89990234375,2367.300048828125,2712.60009765625,1841.0999755859375,3543.89990234375,-20081.099609375,9830.099609375,2535.0,4096.5,-2233.5,-2411.699951171875,-1450.800048828125,-1165.5,-9.0,1.2000000476837158,1208.699951171875,3183.0,-13.5,9830.099609375,-1785.0,-2292.89990234375,0.0
2.3728358903208733,-9187.2001953125,-8569.2001953125,-8967.599609375,-7762.2001953125,-9038.099609375,-9830.400390625,-9696.900390625,-9830.400390625,14004.900390625,5847.89990234375,-9830.400390625,-9830.400390625,-7274.10009765625,-7988.7001953125,-8814.599609375,-8635.7998046875,-9.0,0.30000001192092896,-9830.400390625,-9171.599609375,-13.800000190734863,431.70001220703125,-7373.39990234375,-5083.7998046875,0.0
2.3731656655251783,9830.099609375,9830.099609375,9830.099609375,9830.099609375,9830.099609375,9830.099609375,9830.099609375,9830.099609375,666.9000244140625,-9469.2001953125,9590.400390625,9830.099609375,9830.099609375,9830.099609375,9830.099609375,9830.099609375,-8.699999809265137,0.8999999761581421,9360.2998046875,9830.099609375,-14.399999618530273,-9830.400390625,9830.099609375,9830.099609375,0.0
2.3734296781644226,-5277.60009765625,-8319.900390625,-9830.400390625,-9830.400390625,-7534.7998046875,-5271.0,-4121.7001953125,-3674.699951171875,-20229.30078125,-9830.400390625,3272.10009765625,269.70001220703125,1884.5999755859375,5125.5,4648.5,3313.199951171875,-9.0,1.5,4272.60009765625,-307.79998779296875,-13.5,-9629.099609375,678.2999877929688,-5554.7998046875,0.0
2.3843019945304795,-3877.5,-321.8999938964844,377.1000061035156,795.5999755859375,-3743.699951171875,-5717.10009765625,-6160.5,-7128.60009765625,24971.69921875,-2684.699951171875,-9830.400390625,-9830.400390625,-4260.2998046875,-9218.400390625,-9612.599609375,-8984.400390625,-8.699999809265137,1.5,-9830.400390625,-9830.400390625,-13.800000190734863,4960.2001953125,-9830.400390625,-2462.699951171875,0.0
2.384581405233738,8924.400390625,8757.599609375,9830.099609375,8998.5,9830.099609375,9830.099609375,9830.099609375,9830.099609375,-30084.599609375,9830.099609375,9750.2998046875,9830.099609375,-5730.60009765625,-5802.2998046875,-915.0,-1262.0999755859375,-8.699999809265137,1.5,8382.900390625,8677.2001953125,-14.100000381469727,9830.099609375,-3282.89990234375,-7005.89990234375,0.0
2.384848625802985,-1008.5999755859375,1532.0999755859375,1213.800048828125,3273.89990234375,198.89999389648438,-1962.9000244140625,-2575.199951171875,-2809.199951171875,34901.1015625,7362.0,-8284.7998046875,-5437.5,-2456.10009765625,-7756.5,-8357.400390625,-6390.89990234375,-9.0,1.5,-8997.900390625,-2634.89990234375,-13.800000190734863,2530.199951171875,-2363.699951171875,7862.39990234375,0.0
2.385109109719226,-9395.099609375,-9830.400390625,-9830.400390625,-9830.400390625,-9830.400390625,-8836.5,-8302.5,-8066.39990234375,-26750.099609375,-7650.89990234375,-176.39999389648438,-357.0,-6824.10009765625,-3421.199951171875,-3533.10009765625,-4873.7998046875,-8.100000381469727,1.2000000476837158,-447.0,1019.4000244140625,-13.800000190734863,-9830.400390625,-5088.0,-9243.900390625,0.0
2.3853711976004686,9830.099609375,9830.099609375,9830.099609375,9830.099609375,9830.099609375,9830.099609375,9830.099609375,9830.099609375,10596.2998046875,-9830.400390625,9830.099609375,9830.099609375,9830.099609375,9830.099609375,9830.099609375,9830.099609375,-9.0,1.5,9830.099609375,9830.099609375,-14.100000381469727,-6401.39990234375,9830.099609375,9830.099609375,0.0
2.3856332854817106,-8354.400390625,-7954.7998046875,-8232.599609375,-7887.89990234375,-8716.7998046875,-8919.0,-8669.7001953125,-9046.2001953125,-4520.10009765625,2334.89990234375,-9626.400390625,-9830.400390625,-7864.5,-7766.39990234375,-7937.7001953125,-7884.0,-8.699999809265137,1.5,-8864.400390625,-9830.400390625,-13.800000190734863,8898.2998046875,-8582.099609375,-8277.900390625,0.0
2.385893769397952,1652.699951171875,2076.89990234375,3231.89990234375,2340.0,2496.0,2526.300048828125,1913.0999755859375,2433.60009765625,-8002.7998046875,9830.099609375,300.29998779296875,1457.0999755859375,-1384.199951171875,-2255.10009765625,-1446.5999755859375,-1372.199951171875,-8.100000381469727,0.6000000238418579,-833.7000122070312,28.799999237060547,-14.100000381469727,9830.099609375,-1253.4000244140625,-669.2999877929688,0.0
2.3861545741071932,5552.10009765625,5809.2001953125,5695.2001953125,6167.7001953125,5802.89990234375,5531.7001953125,5403.0,5810.7001953125,23489.69921875,7878.60009765625,5508.0,6972.60009765625,5328.60009765625,4823.7001953125,4566.89990234375,5201.7001953125,-9.0,2.0999999046325684,5061.2998046875,8458.2001953125,-14.100000381469727,2958.60009765625,5881.7998046875,6472.7998046875,0.0
2.386412170886431,-9830.400390625,-9830.400390625,-9830.400390625,-9830.400390625,-9830.400390625,-9830.400390625,-9830.400390625,-9830.400390625,-29417.69921875,-7495.7998046875,-9576.900390625,-9830.400390625,-9673.5,-9048.900390625,-9441.599609375,-9736.7998046875,-8.100000381469727,0.6000000238418579,-9448.7998046875,-9174.900390625,-13.5,-9830.400390625,-9363.2998046875,-9760.2001953125,0.0
2.4124502971345168,9830.099609375,9830.099609375,9830.099609375,9830.099609375,9830.099609375,9830.099609375,9830.099609375,9830.099609375,26676.0,-9830.400390625,9830.099609375,9830.099609375,9830.099609375,9830.099609375,9830.099609375,9830.099609375,-8.699999809265137,0.30000001192092896,9830.099609375,9830.099609375,-14.100000381469727,-7882.2001953125,9830.099609375,9830.099609375,0.0
2.4127149513597614,-6048.2998046875,-6271.5,-6101.39990234375,-6487.2001953125,-6270.60009765625,-5708.39990234375,-5736.2998046875,-5003.10009765625,-31047.900390625,5794.7998046875,-3958.800048828125,-5956.7998046875,-6831.0,-5802.89990234375,-5187.89990234375,-5582.10009765625,-8.399999618530273,0.6000000238418579,-3605.699951171875,-7237.7998046875,-13.800000190734863,8097.2998046875,-6795.0,-8115.89990234375,0.0
2.412971906552999,-1550.4000244140625,-123.5999984741211,643.2000122070312,739.5,-692.4000244140625,-1889.4000244140625,-2321.10009765625,-3032.699951171875,24453.0,9830.099609375,-9005.400390625,-6799.2001953125,-3065.39990234375,-5761.2001953125,-6146.10009765625,-5145.2998046875,-8.399999618530273,0.6000000238418579,-9243.599609375,-6393.2998046875,-14.399999618530273,9830.099609375,-4057.199951171875,-419.70001220703125,0.0
2.413230465711238,7986.60009765625,7447.7998046875,7593.0,7359.2998046875,8232.900390625,8874.599609375,8645.7001953125,9669.900390625,-8151.0,8459.7001953125,9830.099609375,9830.099609375,6092.39990234375,7020.60009765625,7720.5,7738.7998046875,-8.699999809265137,1.5,9830.099609375,9830.099609375,-13.800000190734863,3361.199951171875,8141.7001953125,6039.0,0.0
2.4134848545604735,-9830.400390625,-9830.400390625,-9830.400390625,-9830.400390625,-9830.400390625,-9830.400390625,-9830.400390625,-9830.400390625,-4149.60009765625,-7937.10009765625,-7958.10009765625,-7335.60009765625,-8241.599609375,-7667.39990234375,-9395.099609375,-9427.7998046875,-8.699999809265137,0.8999999761581421,-8586.900390625,-5272.5,-14.100000381469727,-9830.400390625,-7836.60009765625,-7147.2001953125,0.0
2.413736356272706,7104.89990234375,6255.89990234375,2867.39990234375,4033.199951171875,4367.10009765625,4337.10009765625,6233.7001953125,3279.300048828125,11559.599609375,-9830.400390625,4500.0,1674.5999755859375,9830.099609375,9830.099609375,9830.099609375,9830.099609375,-8.399999618530273,1.2000000476837158,6774.2998046875,1538.0999755859375,-14.100000381469727,-9060.0,9830.099609375,9830.099609375,0.0
2.41398914115694,6223.7998046875,6498.89990234375,9335.099609375,5100.89990234375,7163.7001953125,8097.2998046875,6879.60009765625,8539.7998046875,-29195.400390625,1282.199951171875,5805.60009765625,5157.2998046875,-1841.4000244140625,-7.5,2185.800048828125,1514.4000244140625,-9.0,2.4000000953674316,5117.39990234375,2649.60009765625,-13.5,5898.89990234375,-2262.60009765625,-8205.2998046875,0.0
2.414243209213175,-8940.2998046875,-4659.89990234375,-2647.5,-858.2999877929688,-8078.10009765625,-9830.400390625,-9830.400390625,-9830.400390625,35049.30078125,9830.099609375,-9830.400390625,-9830.400390625,-9830.400390625,-9830.400390625,-9830.400390625,-9830.400390625,-8.699999809265137,0.6000000238418579,-9830.400390625,-9830.400390625,-14.100000381469727,9830.099609375,-9830.400390625,-5367.89990234375,0.0
2.41449727726941,-2431.199951171875,-3364.199951171875,-489.29998779296875,-2498.10009765625,-654.2999877929688,402.8999938964844,-837.2999877929688,1642.5,-28973.099609375,8220.900390625,3297.0,5596.7998046875,-5329.2001953125,-4097.10009765625,-3274.5,-3639.89990234375,-8.699999809265137,0.6000000238418579,1555.5,5551.7998046875,-13.800000190734863,1242.5999755859375,-3049.800048828125,-6457.7998046875,0.0
2.4438985973326064,9226.7998046875,9043.7998046875,7158.60009765625,8762.400390625,8353.5,7881.89990234375,8688.0,7480.2001953125,23860.19921875,-7750.7998046875,8232.599609375,7599.60009765625,9830.099609375,9830.099609375,9830.099609375,9830.099609375,-9.0,0.8999999761581421,9291.0,9061.2001953125,-14.100000381469727,-9830.400390625,9830.099609375,9830.099609375,0.0
2.44416228917885,-9830.400390625,-9830.400390625,-9830.400390625,-9830.400390625,-9830.400390625,-9830.400390625,-9830.400390625,-9830.400390625,-18599.099609375,-9830.400390625,-9830.400390625,-9830.400390625,-9253.2001953125,-8256.599609375,-8824.7998046875,-9406.7998046875,-8.699999809265137,0.8999999761581421,-9434.400390625,-9830.400390625,-13.800000190734863,-9315.0,-9830.400390625,-9830.400390625,0.0
2.4444189235790876,9275.7001953125,8902.2001953125,9048.2998046875,8413.7998046875,9017.7001953125,9547.2001953125,9668.099609375,9594.599609375,-296.3999938964844,-1786.5,9830.099609375,9830.099609375,8231.7001953125,9376.7998046875,9830.099609375,9441.0,-8.699999809265137,0.8999999761581421,9830.099609375,8162.10009765625,-14.699999809265137,4632.2998046875,8023.2001953125,5935.5,0.0
2.4446742748073236,-1545.0,-625.2000122070312,-30.0,57.599998474121094,-938.4000244140625,-1452.9000244140625,-1922.0999755859375,-1600.199951171875,13263.900390625,9830.099609375,-6813.89990234375,-6273.60009765625,-3135.89990234375,-4557.60009765625,-4517.10009765625,-3764.699951171875,-9.0,1.5,-6437.7001953125,-6452.39990234375,-14.100000381469727,9830.099609375,-3655.800048828125,-1420.800048828125,0.0
2.4449257765195562,-6524.10009765625,-6540.2998046875,-6347.10009765625,-6329.10009765625,-6141.2998046875,-6302.39990234375,-6419.7001953125,-6431.7001953125,-18599.099609375,3593.699951171875,-4290.89990234375,-2654.10009765625,-6582.60009765625,-6419.10009765625,-6516.60009765625,-6646.2001953125,-8.399999618530273,0.0,-5210.39990234375,-2001.300048828125,-13.800000190734863,-2726.10009765625,-5928.0,-6201.89990234375,0.0
2.4451891475728,9830.099609375,9830.099609375,9830.099609375,9830.099609375,9830.099609375,9830.099609375,9830.099609375,9830.099609375,26898.30078125,-9747.900390625,9830.099609375,9830.099609375,9830.099609375,9830.099609375,9830.099609375,9830.099609375,-9.300000190734863,1.2000000476837158,9830.099609375,9830.099609375,-13.800000190734863,-9830.400390625,9830.099609375,9830.099609375,0.0
2.445442253250034,-9830.400390625,-9830.400390625,-9830.400390625,-9830.400390625,-9830.400390625,-9830.400390625,-9830.400390625,-9830.400390625,-35493.8984375,-9830.400390625,-8499.0,-9156.900390625,-9402.599609375,-8503.5,-8706.599609375,-9018.599609375,-9.0,0.8999999761581421,-8246.400390625,-8641.7998046875,-14.100000381469727,-9830.400390625,-9569.7001953125,-9830.400390625,0.0
2.445696321306269,6949.2001953125,7174.7998046875,6980.39990234375,7039.7998046875,6606.2998046875,6423.89990234375,6686.7001953125,5614.7998046875,26601.900390625,-1143.0,2697.300048828125,807.2999877929688,7205.39990234375,6830.7001953125,6948.2998046875,6714.89990234375,-8.699999809265137,1.5,4163.10009765625,-875.0999755859375,-14.399999618530273,4713.0,6055.7998046875,6741.0,0.0
2.4459487853975026,1552.800048828125,1834.5,3125.10009765625,2198.10009765625,2488.199951171875,2795.39990234375,1954.5,3608.39990234375,-19488.30078125,9830.099609375,2587.199951171875,4174.5,-2099.39990234375,-2259.0,-1339.199951171875,-1041.9000244140625,-9.300000190734863,1.5,1254.9000244140625,3290.10009765625,-13.800000190734863,9830.099609375,-1629.9000244140625,-2058.60009765625,0.0
2.475461420631802,-9250.7998046875,-8634.0,-9074.400390625,-7859.7001953125,-9065.400390625,-9830.400390625,-9733.7998046875,-9830.400390625,13486.2001953125,5734.7998046875,-9830.400390625,-9830.400390625,-7390.5,-8023.5,-8853.900390625,-8658.0,-8.699999809265137,0.30000001192092896,-9830.400390625,-9096.900390625,-14.399999618530273,282.29998779296875,-7448.10009765625,-5261.10009765625,0.0
2.4757283204080487,9830.099609375,9830.099609375,9830.099609375,9830.099609375,9830.099609375,9830.099609375,9830.099609375,9830.099609375,1556.0999755859375,-9537.2998046875,9639.900390625,9830.099609375,9830.099609375,9830.099609375,9830.099609375,9830.099609375,-8.399999618530273,0.6000000238418579,9376.7998046875,9830.099609375,-14.399999618530273,-9830.400390625,9830.099609375,9830.099609375,0.0
2.4759862379802873,-5578.5,-8415.599609375,-9830.400390625,-9830.400390625,-7601.7001953125,-5391.60009765625,-4316.7001953125,-3800.699951171875,-20822.099609375,-9830.400390625,3202.199951171875,189.0,1356.0,4668.60009765625,4273.5,2900.699951171875,-8.699999809265137,0.8999999761581421,4173.60009765625,-398.3999938964844,-13.5,-9513.900390625,155.6999969482422,-6073.5,0.0
2.476240947622523,-3794.10009765625,-153.3000030517578,540.5999755859375,1076.699951171875,-3434.699951171875,-5472.0,-5989.2001953125,-6912.60009765625,25342.19921875,-2513.39990234375,-9830.400390625,-9830.400390625,-4268.39990234375,-9351.0,-9687.2998046875,-8994.2998046875,-8.699999809265137,0.8999999761581421,-9830.400390625,-9830.400390625,-13.800000190734863,5257.7998046875,-9830.400390625,-2303.39990234375,0.0
2.4764953364717583,8983.2001953125,8904.599609375,9830.099609375,9198.599609375,9830.099609375,9830.099609375,9830.099609375,9830.099609375,-30158.69921875,9830.099609375,9768.2998046875,9830.099609375,-5939.10009765625,-5852.7001953125,-1043.0999755859375,-1248.5999755859375,-9.0,1.5,8450.099609375,8796.900390625,-13.800000190734863,9830.099609375,-3286.199951171875,-7181.7001953125,0.0
2.476749404527993,-1191.9000244140625,1352.4000244140625,1060.800048828125,3202.800048828125,101.4000015258789,-2131.199951171875,-2759.39990234375,-2880.0,34530.6015625,7232.7001953125,-8226.599609375,-5449.2001953125,-2697.300048828125,-7957.7998046875,-8577.0,-6571.5,-9.0,0.8999999761581421,-8972.099609375,-2598.60009765625,-13.199999809265137,2400.60009765625,-2512.199951171875,7842.2998046875,0.0
2.477001227033226,-9427.2001953125,-9830.400390625,-9830.400390625,-9830.400390625,-9830.400390625,-8822.400390625,-8326.5,-8049.60009765625,-26453.69921875,-7725.2998046875,-98.4000015258789,-304.20001220703125,-6799.5,-3243.60009765625,-3360.0,-4706.39990234375,-8.399999618530273,1.2000000476837158,-359.70001220703125,1092.0,-13.800000190734863,-9830.400390625,-4926.2998046875,-9217.2001953125,0.0
2.4772552950894613,9830.099609375,9830.099609375,9830.099609375,9830.099609375,9830.099609375,9830.099609375,9830.099609375,9830.099609375,9336.599609375,-9830.400390625,9830.099609375,9830.099609375,9830.099609375,9830.099609375,9830.099609375,9830.099609375,-9.300000190734863,1.5,9830.099609375,9830.099609375,-13.800000190734863,-6214.5,9830.099609375,9830.099609375,0.0
2.477507759180695,-8260.7998046875,-7896.0,-8124.0,-7785.2998046875,-8620.5,-8840.099609375,-8592.2998046875,-9009.2998046875,-3556.800048828125,2959.5,-9649.7998046875,-9830.400390625,-7805.7001953125,-7700.7001953125,-7884.89990234375,-7814.10009765625,-8.699999809265137,0.8999999761581421,-8862.0,-9830.400390625,-13.5,8972.099609375,-8541.0,-8185.5,0.0
2.4777615064439296,1496.4000244140625,1926.5999755859375,3094.199951171875,2205.89990234375,2405.39990234375,2415.300048828125,1793.699951171875,2335.5,-8966.099609375,9830.099609375,246.89999389648438,1449.0,-1547.0999755859375,-2400.0,-1594.800048828125,-1513.5,-8.699999809265137,1.5,-924.5999755859375,51.599998474121094,-14.100000381469727,9830.099609375,-1387.800048828125,-790.5,0.0
2.478013008156162,5669.7001953125,5913.0,5782.7998046875,6255.89990234375,5892.0,5614.7998046875,5522.39990234375,5883.60009765625,24008.400390625,7707.0,5579.10009765625,7023.0,5425.5,4989.89990234375,4672.2001953125,5339.39990234375,-9.0,0.6000000238418579,5206.2001953125,8543.400390625,-13.800000190734863,2770.800048828125,6008.10009765625,6602.7001953125,0.0
2.478267717798398,-9830.400390625,-9830.400390625,-9830.400390625,-9830.400390625,-9830.400390625,-9830.400390625,-9830.400390625,-9830.400390625,-30010.5,-7799.7001953125,-9598.2001953125,-9830.400390625,-9723.900390625,-9106.2001953125,-9479.7001953125,-9800.099609375,-8.399999618530273,0.30000001192092896,-9447.0,-9175.5,-14.100000381469727,-9830.400390625,-9426.900390625,-9830.400390625,0.0
2.4785314096446416,9830.099609375,9830.099609375,9830.099609375,9830.099609375,9830.099609375,9830.099609375,9830.099609375,9830.099609375,26601.900390625,-9830.400390625,9830.099609375,9830.099609375,9830.099609375,9830.099609375,9830.099609375,9830.099609375,-9.0,0.8999999761581421,9830.099609375,9830.099609375,-13.800000190734863,-7755.60009765625,9830.099609375,9830.099609375,0.0
2.4787896480098803,-5960.7001953125,-6162.89990234375,-5944.2001953125,-6347.39990234375,-6102.0,-5606.7001953125,-5649.0,-4908.60009765625,-30751.5,5789.39990234375,-4014.300048828125,-5969.10009765625,-6756.89990234375,-5756.10009765625,-5147.7001953125,-5550.60009765625,-8.399999618530273,1.5,-3664.199951171875,-7254.0,-13.800000190734863,8176.7998046875,-6732.2998046875,-8011.7998046875,0.0
2.479042432894114,-1674.9000244140625,-276.6000061035156,446.1000061035156,531.0,-880.5,-1985.4000244140625,-2421.60009765625,-3107.39990234375,23637.900390625,9830.099609375,-8970.599609375,-6743.10009765625,-3231.300048828125,-5808.60009765625,-6208.2001953125,-5230.7998046875,-8.699999809265137,0.6000000238418579,-9213.900390625,-6249.0,-14.100000381469727,9830.099609375,-4158.89990234375,-599.0999755859375,0.0
2.4792955385713484,8112.89990234375,7590.2998046875,7747.5,7583.7001953125,8435.400390625,8944.7998046875,8748.2998046875,9748.7998046875,-7632.2998046875,8322.900390625,9830.099609375,9830.099609375,6323.7001953125,7242.0,7876.7998046875,7905.60009765625,-8.699999809265137,1.5,9830.099609375,9830.099609375,-13.800000190734863,3096.300048828125,8319.0,6269.10009765625,0.0
2.4795473610765812,-9830.400390625,-9830.400390625,-9830.400390625,-9830.400390625,-9830.400390625,-9830.400390625,-9830.400390625,-9830.400390625,-4816.5,-8088.60009765625,-8040.0,-7320.2998046875,-8416.7998046875,-7774.2001953125,-9423.2998046875,-9510.0,-9.0,1.5,-8665.2001953125,-5188.7998046875,-14.100000381469727,-9830.400390625,-7992.60009765625,-7438.7998046875,0.0
2.479802391511817,7260.2998046875,6478.7998046875,3311.39990234375,4760.7001953125,4856.7001953125,4496.39990234375,6399.60009765625,3401.10009765625,12448.7998046875,-9830.400390625,4362.89990234375,1608.300048828125,9830.099609375,9830.099609375,9830.099609375,9830.099609375,-8.699999809265137,0.8999999761581421,6685.2001953125,1551.0,-13.800000190734863,-8973.2998046875,9830.099609375,9830.099609375,0.0
2.554710123425107,5906.39990234375,6164.39990234375,9064.7998046875,5155.2001953125,7134.89990234375,7869.2998046875,6604.7998046875,8324.099609375,-29417.69921875,1341.9000244140625,5688.2998046875,5137.7998046875,-2290.5,-303.29998779296875,1875.5999755859375,1165.800048828125,-9.0,0.8999999761581421,4925.7001953125,2681.699951171875,-13.800000190734863,5997.2998046875,-2544.300048828125,-8438.7001953125,0.0
2.55530808157766,-9108.900390625,-4561.5,-2442.0,-583.2000122070312,-7794.2998046875,-9830.400390625,-9830.400390625,-9830.400390625,35345.69921875,9830.099609375,-9830.400390625,-9830.400390625,-9830.400390625,-9830.400390625,-9830.400390625,-9830.400390625,-8.699999809265137,0.8999999761581421,-9830.400390625,-9830.400390625,-14.100000381469727,9830.099609375,-9830.400390625,-5454.60009765625,0.0
2.556008372697308,-2294.39990234375,-3195.89990234375,-262.5,-2169.0,-171.89999389648438,569.7000122070312,-719.4000244140625,1762.5,-28824.900390625,8080.5,3333.0,5703.0,-5372.7001953125,-4035.89990234375,-3261.300048828125,-3669.300048828125,-8.399999618530273,0.8999999761581421,1533.300048828125,5715.89990234375,-13.800000190734863,904.7999877929688,-3066.0,-6386.39990234375,0.0
2.5566252576368784,9247.7998046875,8989.7998046875,7087.7998046875,8694.0,8272.5,7836.0,8687.400390625,7440.2998046875,23267.400390625,-7895.39990234375,8223.599609375,7547.39990234375,9830.099609375,9830.099609375,9830.099609375,9830.099609375,-9.0,1.2000000476837158,9344.400390625,9044.099609375,-13.800000190734863,-9830.400390625,9830.099609375,9830.099609375,0.0
2.557208459311418,-9830.400390625,-9830.400390625,-9830.400390625,-9830.400390625,-9830.400390625,-9830.400390625,-9830.400390625,-9830.400390625,-17635.80078125,-9830.400390625,-9830.400390625,-9830.400390625,-9193.7998046875,-8193.2998046875,-8837.099609375,-9403.5,-8.399999618530273,0.6000000238418579,-9435.2998046875,-9830.400390625,-14.100000381469727,-9244.7998046875,-9830.400390625,-9830.400390625,0.0
2.557784924332951,9222.900390625,8846.7001953125,8988.599609375,8353.7998046875,8949.0,9515.400390625,9644.099609375,9569.7001953125,-1259.699951171875,-1586.4000244140625,9830.099609375,9830.099609375,8127.0,9284.099609375,9830.099609375,9335.099609375,-8.399999618530273,0.8999999761581421,9830.099609375,8177.10009765625,-14.100000381469727,4842.0,7879.5,5761.7998046875,0.0
2.5583572190454804,-1414.5,-481.79998779296875,127.5,212.39999389648438,-807.9000244140625,-1364.4000244140625,-1824.0,-1519.199951171875,13930.7998046875,9830.099609375,-6776.10009765625,-6217.7998046875,-3005.10009765625,-4449.89990234375,-4463.7001953125,-3669.300048828125,-9.0,1.2000000476837158,-6408.89990234375,-6351.89990234375,-13.800000190734863,9830.099609375,-3556.5,-1238.699951171875,0.0
2.558928230586009,-6622.2001953125,-6633.2998046875,-6481.7998046875,-6474.0,-6287.10009765625,-6413.39990234375,-6495.89990234375,-6516.0,-19340.099609375,3255.0,-4240.7998046875,-2640.300048828125,-6656.39990234375,-6471.89990234375,-6588.0,-6739.7998046875,-8.399999618530273,1.2000000476837158,-5123.7001953125,-1971.0,-14.100000381469727,-2885.699951171875,-6014.10009765625,-6312.0,0.0
2.559498600540536,9830.099609375,9830.099609375,9830.099609375,9830.099609375,9830.099609375,9830.099609375,9830.099609375,9830.099609375,27268.80078125,-9807.599609375,9830.099609375,9830.099609375,9830.099609375,9830.099609375,9830.099609375,9830.099609375,-8.699999809265137,2.4000000953674316,9830.099609375,9830.099609375,-13.800000190734863,-9830.400390625,9830.099609375,9830.099609375,0.0
2.5600680081160627,-9830.400390625,-9830.400390625,-9830.400390625,-9830.400390625,-9830.400390625,-9830.400390625,-9830.400390625,-9830.400390625,-35049.30078125,-9830.400390625,-8484.0,-9126.0,-9341.400390625,-8454.599609375,-8691.900390625,-9037.7998046875,-8.699999809265137,0.6000000238418579,-8199.900390625,-8615.099609375,-13.800000190734863,-9830.400390625,-9544.2001953125,-9830.400390625,0.0
2.56063805727759,6817.7998046875,7038.89990234375,6883.5,6924.60009765625,6516.0,6310.2001953125,6595.2001953125,5510.39990234375,26601.900390625,-872.4000244140625,2689.5,688.7999877929688,7039.2001953125,6630.0,6732.2998046875,6502.5,-8.699999809265137,0.30000001192092896,4149.60009765625,-999.5999755859375,-14.399999618530273,4910.10009765625,5849.7001953125,6549.89990234375,0.0
2.561208427232118,1655.4000244140625,1955.0999755859375,3206.699951171875,2325.0,2559.300048828125,2887.5,2021.4000244140625,3657.89990234375,-18525.0,9830.099609375,2610.89990234375,4229.7001953125,-1914.0,-2091.60009765625,-1191.300048828125,-907.7999877929688,-9.0,0.8999999761581421,1303.199951171875,3403.800048828125,-13.800000190734863,9830.099609375,-1436.4000244140625,-1810.800048828125,0.0
2.5617749476706417,-9309.0,-8701.2001953125,-9178.2001953125,-7996.5,-9126.0,-9830.400390625,-9744.900390625,-9830.400390625,12522.900390625,5637.2998046875,-9830.400390625,-9830.400390625,-7466.39990234375,-8083.7998046875,-8908.2001953125,-8744.099609375,-8.399999618530273,0.0,-9830.400390625,-9104.7001953125,-13.800000190734863,155.6999969482422,-7547.10009765625,-5464.7998046875,0.0
2.56236745234219,9830.099609375,9830.099609375,9830.099609375,9830.099609375,9830.099609375,9830.099609375,9830.099609375,9830.099609375,2519.39990234375,-9597.599609375,9693.599609375,9830.099609375,9830.099609375,9830.099609375,9830.099609375,9830.099609375,-8.699999809265137,1.2000000476837158,9462.0,9830.099609375,-14.100000381469727,-9830.400390625,9830.099609375,9830.099609375,0.0
2.5629400678477197,-5784.89990234375,-8551.5,-9830.400390625,-9830.400390625,-7698.2998046875,-5493.89990234375,-4489.2001953125,-3919.800048828125,-21859.5,-9830.400390625,3110.10009765625,84.5999984741211,769.7999877929688,4207.2001953125,3800.10009765625,2369.10009765625,-8.699999809265137,1.2000000476837158,4072.800048828125,-546.5999755859375,-13.800000190734863,-9372.0,-427.79998779296875,-6781.7998046875,0.0
2.5635114001812482,-3659.39990234375,24.899999618530273,753.5999755859375,1242.5999755859375,-3262.199951171875,-5257.2001953125,-5829.89990234375,-6683.39990234375,25860.900390625,-2342.699951171875,-9830.400390625,-9830.400390625,-4201.7998046875,-9422.099609375,-9830.400390625,-9017.400390625,-8.699999809265137,1.2000000476837158,-9830.400390625,-9830.400390625,-14.100000381469727,5575.7998046875,-9830.400390625,-2217.60009765625,0.0
2.564080807756775,9005.7001953125,9007.5,9830.099609375,9333.2998046875,9830.099609375,9830.099609375,9830.099609375,9830.099609375,-30529.19921875,9830.099609375,9764.400390625,9830.099609375,-5940.60009765625,-5857.5,-1125.5999755859375,-1295.0999755859375,-8.399999618530273,0.8999999761581421,8409.0,8810.099609375,-14.100000381469727,9830.099609375,-3291.89990234375,-7320.2998046875,0.0
2.5646569519853077,-1334.4000244140625,1248.5999755859375,955.5,3136.800048828125,13.5,-2214.300048828125,-2897.10009765625,-3008.699951171875,34382.3984375,7083.2998046875,-8224.7998046875,-5414.7001953125,-2638.800048828125,-8014.7998046875,-8654.400390625,-6656.39990234375,-8.699999809265137,0.30000001192092896,-8999.7001953125,-2508.60009765625,-13.800000190734863,2234.699951171875,-2477.699951171875,7949.39990234375,0.0
2.5727534465197968,-9380.400390625,-9830.400390625,-9830.400390625,-9830.400390625,-9830.400390625,-8814.0,-8283.2998046875,-8049.0,-25860.900390625,-7831.5,-57.29999923706055,-263.3999938964844,-6603.2998046875,-3099.300048828125,-3282.0,-4610.39990234375,-8.399999618530273,1.5,-310.5,1150.5,-14.100000381469727,-9830.400390625,-4787.39990234375,-8985.2998046875,0.0
2.5743872452703083,9830.099609375,9830.099609375,9830.099609375,9830.099609375,9830.099609375,9830.099609375,9830.099609375,9830.099609375,8966.099609375,-9830.400390625,9830.099609375,9830.099609375,9830.099609375,9830.099609375,9830.099609375,9830.099609375,-8.699999809265137,0.8999999761581421,9830.099609375,9804.0,-14.100000381469727,-5999.10009765625,9830.099609375,9830.099609375,0.0
2.5760008340618006,-8160.60009765625,-7755.0,-8010.89990234375,-7627.7998046875,-8536.5,-8769.2998046875,-8508.599609375,-8950.2001953125,-2519.39990234375,3548.699951171875,-9640.2001953125,-9830.400390625,-7691.10009765625,-7611.2998046875,-7803.89990234375,-7736.10009765625,-8.699999809265137,1.2000000476837158,-8828.400390625,-9830.400390625,-13.800000190734863,9064.7998046875,-8448.599609375,-8030.39990234375,0.0
2.577573040556255,1374.9000244140625,1777.5,2975.39990234375,2068.199951171875,2286.60009765625,2343.300048828125,1655.0999755859375,2227.5,-9558.900390625,9830.099609375,214.1999969482422,1434.0,-1719.300048828125,-2549.699951171875,-1738.800048828125,-1672.5,-8.699999809265137,1.2000000476837158,-1006.2000122070312,9.0,-14.100000381469727,9830.099609375,-1535.4000244140625,-1014.5999755859375,0.0
2.579191441242752,5790.89990234375,6039.2998046875,5886.89990234375,6401.10009765625,5997.2998046875,5712.2998046875,5629.5,5976.0,24971.69921875,7533.89990234375,5637.60009765625,7094.39990234375,5613.2998046875,5158.2001953125,4842.0,5485.7998046875,-8.699999809265137,1.5,5272.5,8641.2001953125,-13.5,2605.5,6173.10009765625,6785.7001953125,0.0
2.580774875492217,-9830.400390625,-9830.400390625,-9830.400390625,-9830.400390625,-9830.400390625,-9830.400390625,-9830.400390625,-9830.400390625,-30158.69921875,-8078.7001953125,-9591.900390625,-9830.400390625,-9769.7998046875,-9137.099609375,-9517.2001953125,-9830.400390625,-8.399999618530273,0.30000001192092896,-9449.7001953125,-9297.2998046875,-14.100000381469727,-9830.400390625,-9462.2998046875,-9830.400390625,0.0
2.5824381871987554,9830.099609375,9830.099609375,9830.099609375,9830.099609375,9830.099609375,9830.099609375,9830.099609375,9830.099609375,26527.80078125,-9830.400390625,9830.099609375,9830.099609375,9830.099609375,9830.099609375,9830.099609375,9830.099609375,-8.699999809265137,0.8999999761581421,9830.099609375,9830.099609375,-14.100000381469727,-7627.5,9830.099609375,9830.099609375,0.0
2.585792398809858,-5856.60009765625,-6055.7998046875,-5839.5,-6243.0,-6059.39990234375,-5528.7001953125,-5572.5,-4822.2001953125,-30455.099609375,5786.7001953125,-3985.199951171875,-5968.5,-6639.0,-5701.5,-5096.10009765625,-5472.2998046875,-9.0,0.8999999761581421,-3675.0,-7218.2998046875,-14.100000381469727,8256.0,-6665.39990234375,-7891.5,0.0
2.5883584220192315,-1796.699951171875,-447.0,287.3999938964844,351.29998779296875,-970.5,-2044.199951171875,-2512.5,-3127.800048828125,22822.80078125,9830.099609375,-8945.400390625,-6706.5,-3351.60009765625,-5900.10009765625,-6243.89990234375,-5288.39990234375,-8.699999809265137,0.30000001192092896,-9195.2998046875,-6239.7001953125,-14.100000381469727,9830.099609375,-4237.2001953125,-752.7000122070312,0.0
2.62044285473691,8213.7001953125,7711.7998046875,7893.60009765625,7745.39990234375,8520.2998046875,9031.7998046875,8820.0,9768.2998046875,-6594.89990234375,8190.60009765625,9830.099609375,9830.099609375,6582.2998046875,7464.2998046875,8067.89990234375,8093.10009765625,-8.100000381469727,1.5,9830.099609375,9830.099609375,-14.100000381469727,2853.60009765625,8473.7998046875,6559.5,0.0
2.621732121805102,-9830.400390625,-9830.400390625,-9830.400390625,-9830.400390625,-9830.400390625,-9830.400390625,-9830.400390625,-9830.400390625,-5853.89990234375,-8219.400390625,-8063.10009765625,-7383.60009765625,-8578.5,-7988.39990234375,-9489.2998046875,-9561.900390625,-8.699999809265137,1.2000000476837158,-8704.5,-5400.60009765625,-13.800000190734863,-9830.400390625,-8175.2998046875,-7749.0,0.0
2.6229870640222632,7341.2998046875,6655.5,3626.699951171875,5143.2001953125,5011.2001953125,4630.5,6475.7998046875,3545.39990234375,13263.900390625,-9830.400390625,4393.2001953125,1576.199951171875,9830.099609375,9830.099609375,9830.099609375,9830.099609375,-8.699999809265137,1.2000000476837158,6666.2998046875,1410.300048828125,-14.399999618530273,-8860.5,9830.099609375,9830.099609375,0.0
2.6242634993704437,5588.10009765625,5761.5,8789.400390625,4860.60009765625,6771.0,7674.0,6345.89990234375,8191.5,-29862.30078125,1485.300048828125,5647.2001953125,5004.2998046875,-2652.60009765625,-658.2000122070312,1619.4000244140625,870.2999877929688,-9.300000190734863,1.5,4859.39990234375,2505.89990234375,-13.5,6111.60009765625,-2821.5,-8647.2001953125,0.0
2.625521328724607,-9241.2001953125,-4538.39990234375,-2348.10009765625,-560.7000122070312,-7824.0,-9830.400390625,-9830.400390625,-9830.400390625,35642.1015625,9830.099609375,-9830.400390625,-9830.400390625,-9830.400390625,-9830.400390625,-9830.400390625,-9830.400390625,-8.699999809265137,0.8999999761581421,-9830.400390625,-9830.400390625,-14.100000381469727,9830.099609375,-9830.400390625,-5384.10009765625,0.0
2.6267865363177774,-2294.39990234375,-3163.199951171875,-264.29998779296875,-2121.89990234375,-99.9000015258789,631.5,-715.5,1906.5,-28824.900390625,7936.2001953125,3363.89990234375,5746.2001953125,-5344.5,-4084.199951171875,-3253.5,-3600.60009765625,-8.399999618530273,0.6000000238418579,1547.699951171875,5806.2001953125,-14.100000381469727,442.5,-3019.5,-6326.10009765625,0.0
2.6280632924589584,9251.099609375,8971.2001953125,7023.2998046875,8623.7998046875,8241.599609375,7839.89990234375,8729.400390625,7452.60009765625,22304.099609375,-8058.0,8244.900390625,7512.60009765625,9830.099609375,9830.099609375,9830.099609375,9830.099609375,-8.699999809265137,1.5,9371.7001953125,9001.5,-14.100000381469727,-9830.400390625,9830.099609375,9830.099609375,0.0
2.6293496723901484,-9830.400390625,-9830.400390625,-9830.400390625,-9830.400390625,-9830.400390625,-9830.400390625,-9830.400390625,-9830.400390625,-17117.099609375,-9830.400390625,-9830.400390625,-9830.400390625,-9128.099609375,-8251.2001953125,-8772.900390625,-9356.099609375,-8.699999809265137,1.2000000476837158,-9472.2001953125,-9830.400390625,-13.800000190734863,-9169.5,-9830.400390625,-9830.400390625,0.0
2.63195643631056,9118.2001953125,8729.400390625,8929.7998046875,8251.2001953125,8836.5,9444.599609375,9558.0,9501.0,-1926.5999755859375,-1412.699951171875,9830.099609375,9830.099609375,7941.60009765625,9125.099609375,9830.099609375,9251.099609375,-8.399999618530273,0.6000000238418579,9830.099609375,8092.7998046875,-14.100000381469727,5091.60009765625,7686.89990234375,5575.7998046875,0.0
2.6571948256089053,-1291.800048828125,-353.3999938964844,238.5,366.29998779296875,-690.2999877929688,-1260.0,-1734.0,-1421.699951171875,14968.2001953125,9830.099609375,-6802.2001953125,-6188.10009765625,-2872.800048828125,-4406.7001953125,-4396.2001953125,-3586.5,-9.0,1.2000000476837158,-6450.89990234375,-6309.89990234375,-14.100000381469727,9830.099609375,-3424.199951171875,-1053.0,0.0
2.657986221940637,-6741.0,-6780.89990234375,-6605.39990234375,-6584.39990234375,-6397.5,-6470.10009765625,-6585.0,-6626.7001953125,-19710.599609375,2890.5,-4188.2998046875,-2685.0,-6735.60009765625,-6545.10009765625,-6590.39990234375,-6769.5,-8.399999618530273,0.30000001192092896,-5101.2001953125,-2037.300048828125,-14.100000381469727,-3036.300048828125,-6093.0,-6427.2001953125,0.0
2.6587984698173885,9830.099609375,9830.099609375,9830.099609375,9830.099609375,9830.099609375,9830.099609375,9830.099609375,9830.099609375,27639.30078125,-9830.400390625,9830.099609375,9830.099609375,9830.099609375,9830.099609375,9830.099609375,9830.099609375,-8.699999809265137,1.2000000476837158,9830.099609375,9830.099609375,-13.800000190734863,-9830.400390625,9830.099609375,9830.099609375,0.0
2.659607509764137,-9830.400390625,-9830.400390625,-9830.400390625,-9830.400390625,-9830.400390625,-9830.400390625,-9830.400390625,-9830.400390625,-35123.3984375,-9830.400390625,-8485.5,-9123.2998046875,-9318.0,-8465.400390625,-8686.7998046875,-8997.0,-8.699999809265137,0.6000000238418579,-8240.400390625,-8619.900390625,-13.5,-9830.400390625,-9533.099609375,-9830.400390625,0.0
2.6603841496178555,6720.60009765625,6909.2998046875,6773.7001953125,6787.7998046875,6370.5,6201.60009765625,6445.5,5451.60009765625,25935.0,-578.7000122070312,2575.199951171875,627.9000244140625,6841.7998046875,6406.5,6579.2998046875,6336.60009765625,-8.100000381469727,1.2000000476837158,3950.39990234375,-1099.800048828125,-14.100000381469727,5141.7001953125,5665.5,6366.0,0.0
2.661194793529605,1723.5,2071.800048828125,3291.0,2427.60009765625,2649.0,2946.60009765625,2111.39990234375,3731.39990234375,-18006.30078125,9830.099609375,2690.39990234375,4249.2001953125,-1700.699951171875,-1941.0,-1083.9000244140625,-772.7999877929688,-9.0,1.2000000476837158,1377.0,3427.800048828125,-14.100000381469727,9830.099609375,-1268.699951171875,-1632.5999755859375,0.0
2.662831479417119,-9358.2001953125,-8850.599609375,-9276.900390625,-8157.89990234375,-9229.2001953125,-9830.400390625,-9828.599609375,-9830.400390625,11559.599609375,5529.60009765625,-9830.400390625,-9830.400390625,-7578.60009765625,-8169.60009765625,-8949.599609375,-8802.599609375,-8.399999618530273,0.6000000238418579,-9830.400390625,-9118.7998046875,-13.800000190734863,34.79999923706055,-7665.2998046875,-5669.7001953125,0.0
2.66362159257685,9830.099609375,9830.099609375,9830.099609375,9830.099609375,9830.099609375,9830.099609375,9830.099609375,9830.099609375,3186.300048828125,-9669.900390625,9743.099609375,9830.099609375,9830.099609375,9830.099609375,9830.099609375,9830.099609375,-9.0,0.8999999761581421,9553.2001953125,9830.099609375,-13.800000190734863,-9830.400390625,9830.099609375,9830.099609375,0.0
2.664431274109599,-5919.0,-8585.099609375,-9830.400390625,-9830.400390625,-7733.7001953125,-5610.60009765625,-4660.7998046875,-4023.60009765625,-22378.19921875,-9830.400390625,3015.60009765625,-23.100000381469727,291.0,3735.0,3421.800048828125,1928.699951171875,-8.699999809265137,1.2000000476837158,3911.699951171875,-687.5999755859375,-13.800000190734863,-9235.5,-920.7000122070312,-7258.5,0.0
2.685068850197689,-3358.5,221.39999389648438,965.4000244140625,1575.9000244140625,-3010.800048828125,-5051.10009765625,-5600.10009765625,-6493.5,26676.0,-2190.0,-9830.400390625,-9830.400390625,-4037.699951171875,-9467.400390625,-9830.400390625,-9012.2998046875,-8.699999809265137,0.6000000238418579,-9830.400390625,-9830.400390625,-13.800000190734863,5857.5,-9830.400390625,-1932.300048828125,0.0
2.68602160540857,9101.400390625,9129.2998046875,9830.099609375,9537.2998046875,9830.099609375,9830.099609375,9830.099609375,9830.099609375,-30529.19921875,9830.099609375,9740.400390625,9830.099609375,-6052.2001953125,-5970.0,-1281.9000244140625,-1446.9000244140625,-8.699999809265137,1.7999999523162842,8383.2001953125,8892.599609375,-14.399999618530273,9830.099609375,-3335.699951171875,-7419.60009765625,0.0
2.6869442060774236,-1586.0999755859375,1026.5999755859375,818.0999755859375,3024.89990234375,-131.10000610351562,-2460.60009765625,-3138.60009765625,-3116.699951171875,34086.0,6961.5,-8237.7001953125,-5382.89990234375,-2774.10009765625,-8231.099609375,-8899.5,-6930.60009765625,-9.0,0.30000001192092896,-9024.0,-2499.89990234375,-13.5,2101.199951171875,-2598.89990234375,7824.89990234375,0.0
2.687769927260187,-9327.599609375,-9830.400390625,-9830.400390625,-9830.400390625,-9830.400390625,-8827.7998046875,-8284.7998046875,-8016.2998046875,-25416.30078125,-7923.60009765625,-12.600000381469727,-270.0,-6456.0,-2920.199951171875,-3126.89990234375,-4510.7998046875,-8.399999618530273,0.6000000238418579,-220.8000030517578,1200.5999755859375,-14.100000381469727,-9830.400390625,-4581.2998046875,-8854.2001953125,0.0
2.6885889117899446,9830.099609375,9830.099609375,9830.099609375,9830.099609375,9830.099609375,9830.099609375,9830.099609375,9830.099609375,8076.89990234375,-9830.400390625,9830.099609375,9830.099609375,9830.099609375,9830.099609375,9830.099609375,9830.099609375,-9.0,0.8999999761581421,9830.099609375,9766.7998046875,-14.100000381469727,-5810.39990234375,9830.099609375,9830.099609375,0.0
2.6893645892646623,-8092.2001953125,-7665.60009765625,-7902.0,-7544.10009765625,-8439.0,-8707.2001953125,-8450.099609375,-8860.2001953125,-1778.4000244140625,4142.10009765625,-9603.2998046875,-9830.400390625,-7619.7001953125,-7582.5,-7768.2001953125,-7688.7001953125,-8.699999809265137,0.6000000238418579,-8804.099609375,-9830.400390625,-13.5,9134.7001953125,-8398.5,-7937.7001953125,0.0
2.6903138157525404,1246.5,1623.5999755859375,2878.800048828125,1939.800048828125,2129.699951171875,2190.89990234375,1523.699951171875,2134.199951171875,-10522.2001953125,9830.099609375,139.5,1440.300048828125,-1892.4000244140625,-2731.5,-1888.800048828125,-1800.9000244140625,-8.699999809265137,0.6000000238418579,-1060.199951171875,-7.5,-14.100000381469727,9830.099609375,-1671.300048828125,-1195.199951171875,0.0
2.691121893320288,5897.39990234375,6141.2998046875,5983.2001953125,6484.7998046875,6102.0,5810.10009765625,5727.60009765625,6052.5,25342.19921875,7350.89990234375,5740.2001953125,7167.0,5764.2001953125,5287.5,4985.10009765625,5608.5,-8.699999809265137,0.8999999761581421,5394.0,8714.7001953125,-13.800000190734863,2413.5,6312.60009765625,6908.39990234375,0.0
2.6920069612081066,-9830.400390625,-9830.400390625,-9830.400390625,-9830.400390625,-9830.400390625,-9830.400390625,-9830.400390625,-9830.400390625,-30455.099609375,-8342.400390625,-9639.599609375,-9830.400390625,-9801.2998046875,-9181.5,-9549.599609375,-9830.400390625,-8.399999618530273,0.6000000238418579,-9508.2001953125,-9317.400390625,-13.800000190734863,-9830.400390625,-9498.599609375,-9830.400390625,0.0
2.712953781748482,9830.099609375,9830.099609375,9830.099609375,9830.099609375,9830.099609375,9830.099609375,9830.099609375,9830.099609375,26676.0,-9830.400390625,9830.099609375,9830.099609375,9830.099609375,9830.099609375,9830.099609375,9830.099609375,-8.699999809265137,0.30000001192092896,9830.099609375,9830.099609375,-14.399999618530273,-7515.2998046875,9830.099609375,9830.099609375,0.0
2.7139950758274454,-5740.7998046875,-5921.39990234375,-5662.2001953125,-6086.7001953125,-5908.7998046875,-5426.10009765625,-5471.10009765625,-4742.10009765625,-29491.80078125,5771.10009765625,-4029.89990234375,-5951.10009765625,-6536.7001953125,-5630.39990234375,-5041.5,-5411.10009765625,-8.699999809265137,1.2000000476837158,-3678.300048828125,-7212.60009765625,-13.800000190734863,8327.7001953125,-6573.2998046875,-7743.89990234375,0.0
2.7148252881122135,-1897.800048828125,-573.9000244140625,164.6999969482422,189.89999389648438,-1076.699951171875,-2176.199951171875,-2609.10009765625,-3234.60009765625,22600.5,9830.099609375,-8925.0,-6637.5,-3436.199951171875,-5923.5,-6299.10009765625,-5353.7998046875,-8.699999809265137,0.0,-9174.599609375,-6170.39990234375,-14.100000381469727,9830.099609375,-4280.7001953125,-905.7000122070312,0.0
2.7157129223440344,8318.099609375,7829.7001953125,8008.7998046875,7854.89990234375,8604.0,9086.7001953125,8902.2001953125,9824.099609375,-5631.60009765625,8044.7998046875,9830.099609375,9830.099609375,6792.2998046875,7669.2001953125,8202.900390625,8242.5,-8.399999618530273,1.5,9830.099609375,9830.099609375,-13.800000190734863,2624.10009765625,8651.400390625,6754.7998046875,0.0
2.7165540415908125,-9830.400390625,-9830.400390625,-9830.400390625,-9830.400390625,-9830.400390625,-9830.400390625,-9830.400390625,-9830.400390625,-6520.7998046875,-8361.2998046875,-7998.60009765625,-7337.7001953125,-8644.2001953125,-7978.5,-9470.400390625,-9582.0,-8.699999809265137,1.2000000476837158,-8550.0,-5439.60009765625,-14.100000381469727,-9830.400390625,-8196.0,-7925.10009765625,0.0
2.7173024516605047,7470.0,6879.0,3955.5,5616.89990234375,5205.2998046875,4825.5,6582.60009765625,3659.39990234375,14153.099609375,-9830.400390625,4409.39990234375,1548.5999755859375,9830.099609375,9830.099609375,9830.099609375,9830.099609375,-8.100000381469727,0.8999999761581421,6751.5,1365.9000244140625,-14.100000381469727,-8781.2998046875,9830.099609375,9830.099609375,0.0
2.718037709217185,5319.60009765625,5469.89990234375,8509.7998046875,4623.2998046875,6493.5,7395.60009765625,6087.2998046875,8035.2001953125,-30381.0,1584.300048828125,5565.0,5074.5,-2886.89990234375,-913.2000122070312,1383.0,620.7000122070312,-9.300000190734863,1.2000000476837158,4766.7001953125,2518.800048828125,-13.800000190734863,6195.0,-2937.0,-8795.7001953125,0.0
2.718788044044879,-9389.400390625,-4530.89990234375,-2272.5,-607.7999877929688,-7757.39990234375,-9830.400390625,-9830.400390625,-9830.400390625,35568.0,9830.099609375,-9830.400390625,-9830.400390625,-9830.400390625,-9830.400390625,-9830.400390625,-9830.400390625,-8.399999618530273,0.30000001192092896,-9830.400390625,-9830.400390625,-14.100000381469727,9830.099609375,-9830.400390625,-5451.60009765625,0.0
2.719604141437634,-2201.699951171875,-2932.800048828125,-97.80000305175781,-2037.300048828125,113.0999984741211,746.0999755859375,-563.4000244140625,1995.5999755859375,-28528.5,7770.0,3419.10009765625,5878.2001953125,-5339.10009765625,-4014.300048828125,-3216.60009765625,-3566.699951171875,-8.699999809265137,-1.2000000476837158,1675.199951171875,5930.39990234375,-13.800000190734863,100.5,-2937.89990234375,-6184.5,0.0
2.7744915029954047,9297.599609375,8928.599609375,6976.5,8543.7001953125,8214.2998046875,7848.0,8748.599609375,7428.89990234375,21933.599609375,-8223.0,8251.7998046875,7497.0,9830.099609375,9830.099609375,9830.099609375,9830.099609375,-9.0,1.2000000476837158,9405.0,8944.7998046875,-13.5,-9830.400390625,9830.099609375,9830.099609375,0.0
2.775571933820404,-9830.400390625,-9830.400390625,-9830.400390625,-9830.400390625,-9830.400390625,-9830.400390625,-9830.400390625,-9830.400390625,-16302.0,-9830.400390625,-9830.400390625,-9830.400390625,-9083.099609375,-8212.7998046875,-8790.2998046875,-9320.7001953125,-8.399999618530273,0.30000001192092896,-9454.7998046875,-9830.400390625,-13.5,-9102.599609375,-9830.400390625,-9830.400390625,0.0
2.7762276347130106,9062.7001953125,8648.7001953125,8851.2001953125,8141.39990234375,8765.400390625,9395.099609375,9522.599609375,9488.099609375,-2889.89990234375,-1212.9000244140625,9830.099609375,9830.099609375,7774.2001953125,8978.7001953125,9830.099609375,9150.900390625,-8.399999618530273,0.8999999761581421,9830.099609375,8013.2998046875,-14.100000381469727,5281.2001953125,7566.2998046875,5336.7001953125,0.0
2.777002029015727,-1188.0,-223.1999969482422,358.79998779296875,489.6000061035156,-560.7000122070312,-1171.5,-1630.199951171875,-1320.9000244140625,15783.2998046875,9830.099609375,-6778.2001953125,-6089.39990234375,-2758.199951171875,-4281.60009765625,-4340.10009765625,-3515.39990234375,-9.0,1.2000000476837158,-6409.7998046875,-6184.2001953125,-14.100000381469727,9830.099609375,-3285.60009765625,-892.7999877929688,0.0
2.7776468229463234,-6816.89990234375,-6873.0,-6746.10009765625,-6742.7998046875,-6504.60009765625,-6578.10009765625,-6675.2998046875,-6718.5,-20377.5,2562.300048828125,-4193.39990234375,-2666.10009765625,-6844.7998046875,-6621.2998046875,-6662.7001953125,-6828.0,-8.100000381469727,0.6000000238418579,-5113.7998046875,-2043.0,-13.800000190734863,-3215.699951171875,-6168.60009765625,-6573.0,0.0
2.7783647576809876,9830.099609375,9830.099609375,9830.099609375,9830.099609375,9830.099609375,9830.099609375,9830.099609375,9830.099609375,27935.69921875,-9830.400390625,9830.099609375,9830.099609375,9830.099609375,9830.099609375,9830.099609375,9830.099609375,-8.699999809265137,0.8999999761581421,9830.099609375,9830.099609375,-13.800000190734863,-9830.400390625,9830.099609375,9830.099609375,0.0
2.7791099598206768,-9830.400390625,-9830.400390625,-9830.400390625,-9830.400390625,-9830.400390625,-9830.400390625,-9830.400390625,-9830.400390625,-35123.3984375,-9830.400390625,-8451.2998046875,-9097.2001953125,-9296.099609375,-8439.900390625,-8652.599609375,-8953.7998046875,-8.699999809265137,1.2000000476837158,-8157.0,-8580.900390625,-13.5,-9763.7998046875,-9480.599609375,-9830.400390625,0.0
2.779757961681276,6602.7001953125,6814.5,6693.2998046875,6692.10009765625,6290.7001953125,6100.2001953125,6348.89990234375,5370.60009765625,25564.5,-288.29998779296875,2502.60009765625,582.9000244140625,6682.2001953125,6249.60009765625,6414.0,6202.7998046875,-8.399999618530273,0.8999999761581421,3888.300048828125,-1227.9000244140625,-14.399999618530273,5335.2001953125,5535.0,6206.7001953125,0.0
2.7802259986687092,1855.5,2178.300048828125,3400.5,2539.199951171875,2750.39990234375,3049.800048828125,2211.60009765625,3801.60009765625,-17043.0,9830.099609375,2688.300048828125,4327.5,-1536.5999755859375,-1789.5,-930.5999755859375,-600.5999755859375,-9.0,0.8999999761581421,1401.0,3560.699951171875,-13.800000190734863,9830.099609375,-1080.300048828125,-1400.4000244140625,0.0
2.780492898444956,-9410.099609375,-8899.5,-9364.7998046875,-8252.400390625,-9281.099609375,-9830.400390625,-9830.400390625,-9830.400390625,10670.400390625,5401.5,-9830.400390625,-9830.400390625,-7692.2998046875,-8221.5,-8994.900390625,-8869.7998046875,-8.699999809265137,0.0,-9830.400390625,-9136.5,-14.100000381469727,-110.0999984741211,-7738.5,-5818.7998046875,0.0
2.7809788998404055,9830.099609375,9830.099609375,9830.099609375,9830.099609375,9830.099609375,9830.099609375,9830.099609375,9830.099609375,4223.7001953125,-9742.5,9795.2998046875,9830.099609375,9830.099609375,9830.099609375,9830.099609375,9830.099609375,-8.699999809265137,0.6000000238418579,9594.900390625,9830.099609375,-13.800000190734863,-9830.400390625,9830.099609375,9830.099609375,0.0
2.7814090832538034,-6124.7998046875,-8667.0,-9830.400390625,-9830.400390625,-7809.89990234375,-5741.39990234375,-4799.39990234375,-4152.2998046875,-23119.19921875,-9830.400390625,2883.0,-156.3000030517578,-293.70001220703125,3184.199951171875,2944.5,1354.199951171875,-9.0,0.8999999761581421,3783.0,-839.7000122070312,-13.800000190734863,-9086.099609375,-1452.9000244140625,-7700.39990234375,0.0
2.7816795117530537,-3327.0,381.6000061035156,1026.300048828125,1659.0,-2919.0,-4909.2001953125,-5423.39990234375,-6308.7001953125,26824.19921875,-1993.199951171875,-9830.400390625,-9830.400390625,-4155.0,-9726.2998046875,-9830.400390625,-9210.900390625,-8.100000381469727,0.8999999761581421,-9830.400390625,-9830.400390625,-14.399999618530273,6150.2998046875,-9830.400390625,-2019.9000244140625,0.0
2.7819586016633115,8978.099609375,9265.2001953125,9830.099609375,9673.5,9830.099609375,9830.099609375,9830.099609375,9830.099609375,-30677.400390625,9830.099609375,9756.0,9830.099609375,-6184.5,-5973.0,-1262.4000244140625,-1539.5999755859375,-8.699999809265137,0.8999999761581421,8358.599609375,8947.5,-14.100000381469727,9830.099609375,-3344.10009765625,-7451.39990234375,0.0
2.782275545147605,-1909.199951171875,837.2999877929688,639.9000244140625,2822.10009765625,-363.6000061035156,-2589.60009765625,-3325.800048828125,-3244.800048828125,33789.6015625,6850.2001953125,-8222.7001953125,-5405.7001953125,-2972.699951171875,-8396.7001953125,-9022.5,-7141.5,-8.699999809265137,2.0999999046325684,-9083.400390625,-2443.800048828125,-13.800000190734863,1972.800048828125,-2659.800048828125,7704.0,0.0
2.782552710299861,-9292.5,-9830.400390625,-9830.400390625,-9830.400390625,-9830.400390625,-8802.900390625,-8220.599609375,-7975.5,-24897.599609375,-8030.7001953125,36.599998474121094,-210.3000030517578,-6340.7998046875,-2674.800048828125,-2970.89990234375,-4382.39990234375,-8.399999618530273,0.30000001192092896,-133.1999969482422,1252.5,-14.399999618530273,-9830.400390625,-4372.2001953125,-8653.2001953125,0.0
2.7828196100761082,9830.099609375,9830.099609375,9830.099609375,9830.099609375,9830.099609375,9830.099609375,9830.099609375,9830.099609375,7187.7001953125,-9830.400390625,9830.099609375,9830.099609375,9830.099609375,9830.099609375,9830.099609375,9830.099609375,-9.0,0.8999999761581421,9830.099609375,9698.099609375,-14.100000381469727,-5587.7998046875,9830.099609375,9830.099609375,0.0
2.783087793024356,-8009.7001953125,-7576.5,-7809.60009765625,-7418.10009765625,-8362.7998046875,-8628.2998046875,-8360.099609375,-8850.2998046875,-518.7000122070312,4693.5,-9640.5,-9830.400390625,-7540.2001953125,-7479.89990234375,-7689.60009765625,-7628.10009765625,-9.0,0.30000001192092896,-8796.0,-9830.400390625,-13.800000190734863,9216.900390625,-8321.7001953125,-7801.2001953125,0.0
2.788772886575615,1110.9000244140625,1527.9000244140625,2743.5,1787.4000244140625,2030.699951171875,2076.0,1399.800048828125,2034.9000244140625,-11189.099609375,9830.099609375,106.80000305175781,1413.0,-2054.699951171875,-2872.199951171875,-2052.60009765625,-1980.0,-8.399999618530273,0.8999999761581421,-1188.0,22.799999237060547,-14.100000381469727,9830.099609375,-1816.5,-1374.300048828125,0.0
2.7890513348998724,6012.2998046875,6268.2001953125,6071.39990234375,6613.5,6217.7998046875,5915.10009765625,5866.2001953125,6159.89990234375,26231.400390625,7152.2998046875,5855.10009765625,7234.2001953125,5921.7001953125,5489.39990234375,5136.60009765625,5767.5,-8.699999809265137,1.5,5520.89990234375,8799.599609375,-13.800000190734863,2224.5,6468.60009765625,7064.10009765625,0.0
2.78931887626212,-9830.400390625,-9830.400390625,-9830.400390625,-9830.400390625,-9830.400390625,-9830.400390625,-9830.400390625,-9830.400390625,-30751.5,-8592.599609375,-9631.5,-9830.400390625,-9830.400390625,-9188.400390625,-9602.7001953125,-9830.400390625,-8.100000381469727,1.2000000476837158,-9537.599609375,-9330.0,-14.100000381469727,-9830.400390625,-9533.400390625,-9830.400390625,0.0
2.789584813659366,9830.099609375,9830.099609375,9830.099609375,9830.099609375,9830.099609375,9830.099609375,9830.099609375,9830.099609375,26601.900390625,-9830.400390625,9830.099609375,9830.099609375,9830.099609375,9830.099609375,9830.099609375,9830.099609375,-9.0,0.6000000238418579,9830.099609375,9830.099609375,-14.100000381469727,-7375.5,9830.099609375,9830.099609375,0.0
2.789850751056612,-5655.60009765625,-5783.10009765625,-5557.7998046875,-5973.0,-5805.0,-5323.2001953125,-5370.0,-4642.7998046875,-29269.5,5796.2998046875,-4056.89990234375,-5953.5,-6446.39990234375,-5565.0,-5003.10009765625,-5347.5,-9.0,0.8999999761581421,-3734.10009765625,-7206.0,-13.800000190734863,8419.5,-6475.5,-7612.5,0.0
2.7901141221098555,-2020.199951171875,-702.5999755859375,6.900000095367432,43.79999923706055,-1197.300048828125,-2269.5,-2718.60009765625,-3324.60009765625,21711.30078125,9830.099609375,-8851.7998046875,-6615.60009765625,-3595.800048828125,-6002.39990234375,-6357.60009765625,-5436.60009765625,-8.399999618530273,0.6000000238418579,-9140.7001953125,-6126.0,-14.399999618530273,9830.099609375,-4393.2001953125,-1071.9000244140625,0.0
2.790377493163099,8440.2001953125,7947.2998046875,8067.0,7971.0,8683.5,9148.2001953125,8965.7998046875,9830.099609375,-5112.89990234375,7925.10009765625,9830.099609375,9830.099609375,6975.89990234375,7874.39990234375,8349.2998046875,8385.2998046875,-8.699999809265137,2.0999999046325684,9830.099609375,9830.099609375,-13.800000190734863,2399.10009765625,8772.0,6912.0,0.0
2.790639901837342,-9830.400390625,-9830.400390625,-9830.400390625,-9830.400390625,-9830.400390625,-9830.400390625,-9830.400390625,-9830.400390625,-7780.5,-8479.5,-7958.39990234375,-7353.60009765625,-8805.900390625,-8042.39990234375,-9497.400390625,-9674.7001953125,-9.0,0.8999999761581421,-8642.7001953125,-5501.7001953125,-13.800000190734863,-9830.400390625,-8408.7001953125,-8199.900390625,0.0
2.790902952097585,7502.10009765625,7020.2998046875,4112.7001953125,5838.2998046875,5342.7001953125,4910.39990234375,6638.39990234375,3776.39990234375,14523.599609375,-9830.400390625,4396.2001953125,1493.0999755859375,9830.099609375,9830.099609375,9830.099609375,9830.099609375,-8.399999618530273,2.0999999046325684,6652.5,1134.9000244140625,-14.399999618530273,-8671.2001953125,9830.099609375,9830.099609375,0.0
2.8183743814709965,5091.2998046875,5263.5,8263.2001953125,4527.2998046875,6264.0,7249.2001953125,5899.5,7921.5,-30899.69921875,1705.199951171875,5556.0,5027.39990234375,-3178.800048828125,-1047.5999755859375,1209.5999755859375,419.70001220703125,-9.0,0.8999999761581421,4698.89990234375,2445.89990234375,-13.800000190734863,6316.7998046875,-3104.10009765625,-8870.099609375,0.0
2.818780826202372,-9528.599609375,-4355.7001953125,-2301.0,-554.0999755859375,-7611.60009765625,-9830.400390625,-9830.400390625,-9830.400390625,35716.19921875,9830.099609375,-9830.400390625,-9830.400390625,-9830.400390625,-9830.400390625,-9830.400390625,-9830.400390625,-8.699999809265137,0.6000000238418579,-9830.400390625,-9830.400390625,-14.100000381469727,9830.099609375,-9830.400390625,-5310.0,0.0
2.8191118845786787,-2059.199951171875,-2654.10009765625,85.80000305175781,-1836.9000244140625,356.3999938964844,873.9000244140625,-470.70001220703125,2113.800048828125,-28232.099609375,7592.10009765625,3511.800048828125,5948.10009765625,-5298.2998046875,-3909.89990234375,-3091.800048828125,-3477.0,-8.699999809265137,1.2000000476837158,1746.300048828125,6054.89990234375,-14.399999618530273,-319.79998779296875,-2784.300048828125,-5714.7001953125,0.0
2.81942722409797,9289.5,8941.7998046875,6900.0,8505.900390625,8159.39990234375,7822.7998046875,8753.400390625,7429.2001953125,21192.599609375,-8400.900390625,8271.599609375,7425.60009765625,9830.099609375,9830.099609375,9830.099609375,9830.099609375,-9.0,0.8999999761581421,9441.900390625,8885.099609375,-13.800000190734863,-9830.400390625,9830.099609375,9830.099609375,0.0
2.819768547850286,-9830.400390625,-9830.400390625,-9830.400390625,-9830.400390625,-9830.400390625,-9830.400390625,-9830.400390625,-9830.400390625,-15190.5,-9830.400390625,-9830.400390625,-9830.400390625,-9030.2998046875,-8142.60009765625,-8733.2998046875,-9295.5,-8.699999809265137,1.7999999523162842,-9510.900390625,-9830.400390625,-13.800000190734863,-9034.7998046875,-9830.400390625,-9830.400390625,0.0
2.8200967190895896,8947.7998046875,8564.7001953125,8789.099609375,8042.10009765625,8700.900390625,9331.2001953125,9435.599609375,9423.0,-3779.10009765625,-1058.699951171875,9830.099609375,9830.099609375,7580.39990234375,8810.400390625,9830.099609375,8989.2001953125,-8.699999809265137,0.6000000238418579,9830.099609375,7935.0,-14.100000381469727,5492.39990234375,7359.0,5116.2001953125,0.0
2.8204502329759165,-1080.5999755859375,-85.19999694824219,495.29998779296875,648.9000244140625,-449.70001220703125,-1079.699951171875,-1536.300048828125,-1230.300048828125,16524.30078125,9830.099609375,-6768.89990234375,-6057.2998046875,-2655.60009765625,-4233.0,-4292.10009765625,-3446.10009765625,-9.0,1.5,-6446.10009765625,-6111.60009765625,-14.100000381469727,9830.099609375,-3189.60009765625,-730.2000122070312,0.0
2.820793481486234,-6932.39990234375,-6982.5,-6860.10009765625,-6864.89990234375,-6611.39990234375,-6668.39990234375,-6753.0,-6807.89990234375,-21340.80078125,2189.10009765625,-4146.0,-2688.300048828125,-6954.89990234375,-6665.7001953125,-6699.89990234375,-6906.2998046875,-8.100000381469727,0.6000000238418579,-5073.89990234375,-2075.699951171875,-14.399999618530273,-3386.699951171875,-6255.0,-6704.10009765625,0.0
2.8211736211915857,9830.099609375,9830.099609375,9830.099609375,9830.099609375,9830.099609375,9830.099609375,9830.099609375,9830.099609375,27935.69921875,-9830.400390625,9830.099609375,9830.099609375,9830.099609375,9830.099609375,9830.099609375,9830.099609375,-8.699999809265137,2.0999999046325684,9830.099609375,9830.099609375,-13.800000190734863,-9830.400390625,9830.099609375,9830.099609375,0.0
2.84928631577259,-9830.400390625,-9830.400390625,-9830.400390625,-9830.400390625,-9830.400390625,-9830.400390625,-9830.400390625,-9830.400390625,-35049.30078125,-9830.400390625,-8434.2001953125,-9063.0,-9269.400390625,-8421.0,-8604.2998046875,-8909.400390625,-8.399999618530273,0.0,-8184.89990234375,-8570.400390625,-13.800000190734863,-9674.099609375,-9443.400390625,-9830.400390625,0.0
2.849570859163853,6466.5,6694.7998046875,6571.2001953125,6564.0,6175.7998046875,5987.7001953125,6249.2998046875,5231.10009765625,25342.19921875,13.5,2363.39990234375,464.3999938964844,6482.39990234375,6009.2998046875,6224.7001953125,5992.2001953125,-8.399999618530273,0.8999999761581421,3697.5,-1282.5,-13.800000190734863,5540.39990234375,5299.2001953125,6043.5,0.0
2.8498380797331,1996.5,2320.800048828125,3508.5,2708.699951171875,2867.39990234375,3141.300048828125,2322.60009765625,3896.699951171875,-16524.30078125,9830.099609375,2787.300048828125,4424.10009765625,-1361.4000244140625,-1609.5,-789.2999877929688,-432.29998779296875,-9.0,0.30000001192092896,1521.0,3693.0,-13.800000190734863,9830.099609375,-883.7999877929688,-1181.0999755859375,0.0
2.850104979509347,-9477.900390625,-8998.7998046875,-9459.2998046875,-8384.400390625,-9348.900390625,-9830.400390625,-9830.400390625,-9830.400390625,9633.0,5327.39990234375,-9830.400390625,-9830.400390625,-7824.2998046875,-8325.2998046875,-9061.5,-8946.900390625,-8.399999618530273,0.6000000238418579,-9830.400390625,-9067.2001953125,-13.800000190734863,-248.10000610351562,-7853.39990234375,-5996.10009765625,0.0
2.850370916906593,9830.099609375,9830.099609375,9830.099609375,9830.099609375,9830.099609375,9830.099609375,9830.099609375,9830.099609375,4964.7001953125,-9797.099609375,9830.099609375,9830.099609375,9830.099609375,9830.099609375,9830.099609375,9830.099609375,-8.699999809265137,1.2000000476837158,9636.900390625,9830.099609375,-14.100000381469727,-9830.400390625,9830.099609375,9830.099609375,0.0
2.8506352503388377,-6280.2001953125,-8772.0,-9830.400390625,-9830.400390625,-7887.60009765625,-5811.0,-4916.10009765625,-4248.60009765625,-23934.30078125,-9830.400390625,2841.60009765625,-206.6999969482422,-802.7999877929688,2713.5,2602.5,918.9000244140625,-9.300000190734863,1.5,3711.89990234375,-972.5999755859375,-13.800000190734863,-8871.0,-1908.300048828125,-8005.2001953125,0.0
2.8508979798060805,-3055.800048828125,621.2999877929688,1295.699951171875,1900.800048828125,-2594.39990234375,-4635.60009765625,-5116.5,-6201.89990234375,27417.0,-1808.4000244140625,-9830.400390625,-9830.400390625,-4053.0,-9776.400390625,-9830.400390625,-9188.400390625,-8.699999809265137,0.8999999761581421,-9830.400390625,-9830.400390625,-13.800000190734863,6516.89990234375,-9830.400390625,-1747.800048828125,0.0
2.8511626340313256,8955.599609375,9357.900390625,9830.099609375,9830.099609375,9830.099609375,9830.099609375,9830.099609375,9830.099609375,-30751.5,9830.099609375,9744.599609375,9830.099609375,-6233.7001953125,-6048.89990234375,-1411.199951171875,-1543.800048828125,-8.399999618530273,1.5,8350.5,9010.2001953125,-14.100000381469727,9830.099609375,-3396.0,-7438.5,0.0
2.8514285714285714,-2221.800048828125,568.7999877929688,485.1000061035156,2666.10009765625,-539.0999755859375,-2764.5,-3534.0,-3416.699951171875,33270.8984375,6759.89990234375,-8206.7998046875,-5390.7001953125,-3060.60009765625,-8598.599609375,-9232.5,-7344.2998046875,-9.0,0.30000001192092896,-9036.0,-2362.5,-14.100000381469727,1785.300048828125,-2704.5,7685.10009765625,0.0
2.880719217906665,-9197.099609375,-9830.400390625,-9830.400390625,-9830.400390625,-9830.400390625,-8742.599609375,-8142.60009765625,-7959.2998046875,-24304.80078125,-8134.5,78.9000015258789,-212.10000610351562,-6101.10009765625,-2460.300048828125,-2818.199951171875,-4230.60009765625,-8.100000381469727,1.5,-61.5,1307.0999755859375,-13.800000190734863,-9830.400390625,-4097.39990234375,-8322.599609375,0.0
2.881039048527961,9830.099609375,9830.099609375,9830.099609375,9830.099609375,9830.099609375,9830.099609375,9830.099609375,9830.099609375,6372.60009765625,-9830.400390625,9830.099609375,9830.099609375,9830.099609375,9830.099609375,9830.099609375,9830.099609375,-9.0,0.6000000238418579,9830.099609375,9684.0,-14.100000381469727,-5414.39990234375,9830.099609375,9830.099609375,0.0
2.8813126849572144,-7962.89990234375,-7478.39990234375,-7730.7001953125,-7332.89990234375,-8315.400390625,-8571.900390625,-8330.7001953125,-8801.099609375,370.5,5100.0,-9635.7001953125,-9830.400390625,-7498.2001953125,-7446.89990234375,-7647.60009765625,-7596.2998046875,-9.0,1.5,-8816.400390625,-9830.400390625,-13.800000190734863,9278.7001953125,-8268.0,-7689.0,0.0
2.881585679800467,985.7999877929688,1370.699951171875,2612.699951171875,1677.5999755859375,1907.699951171875,1989.9000244140625,1282.199951171875,1929.0,-12004.2001953125,9830.099609375,61.79999923706055,1434.300048828125,-2223.89990234375,-3041.39990234375,-2206.800048828125,-2107.800048828125,-8.399999618530273,0.6000000238418579,-1182.9000244140625,-25.5,-14.100000381469727,9830.099609375,-1962.0,-1511.0999755859375,0.0
2.8818586746437194,6118.7998046875,6365.7001953125,6168.60009765625,6704.10009765625,6305.10009765625,6002.39990234375,5936.10009765625,6233.7001953125,26527.80078125,6965.7001953125,5949.0,7308.89990234375,6065.7001953125,5611.5,5276.7001953125,5885.39990234375,-9.0,1.2000000476837158,5605.2001953125,8889.2998046875,-13.800000190734863,2018.699951171875,6612.60009765625,7233.0,0.0
2.882202243947037,-9830.400390625,-9830.400390625,-9830.400390625,-9830.400390625,-9830.400390625,-9830.400390625,-9830.400390625,-9830.400390625,-31122.0,-8794.7998046875,-9672.0,-9830.400390625,-9830.400390625,-9263.400390625,-9630.0,-9830.400390625,-8.399999618530273,0.30000001192092896,-9546.599609375,-9408.599609375,-13.800000190734863,-9830.400390625,-9591.0,-9830.400390625,0.0
2.88255158752436,9830.099609375,9830.099609375,9830.099609375,9830.099609375,9830.099609375,9830.099609375,9830.099609375,9830.099609375,26527.80078125,-9830.400390625,9830.099609375,9830.099609375,9830.099609375,9830.099609375,9830.099609375,9830.099609375,-9.0,1.2000000476837158,9830.099609375,9830.099609375,-14.100000381469727,-7230.2998046875,9830.099609375,9830.099609375,0.0
2.8829044598246867,-5522.7001953125,-5678.7001953125,-5416.7998046875,-5827.2001953125,-5704.7998046875,-5227.5,-5292.0,-4544.7001953125,-28750.80078125,5891.39990234375,-4083.60009765625,-5989.5,-6346.7998046875,-5521.7998046875,-4949.39990234375,-5285.7001953125,-8.699999809265137,0.8999999761581421,-3702.89990234375,-7193.10009765625,-13.800000190734863,8505.0,-6401.10009765625,-7478.7001953125,0.0
2.8831755299099373,-2166.60009765625,-854.4000244140625,-151.8000030517578,-140.10000610351562,-1339.800048828125,-2365.800048828125,-2796.89990234375,-3398.10009765625,20822.099609375,9830.099609375,-8819.400390625,-6535.7998046875,-3705.89990234375,-6043.5,-6394.7998046875,-5503.5,-8.399999618530273,0.8999999761581421,-9116.099609375,-6044.10009765625,-14.399999618530273,9830.099609375,-4477.7998046875,-1251.0,0.0
2.9124148495079836,8543.099609375,8098.5,8198.400390625,8122.7998046875,8781.599609375,9234.0,9073.5,9830.099609375,-4075.5,7770.0,9830.099609375,9830.099609375,7218.60009765625,8070.89990234375,8538.599609375,8551.2001953125,-8.399999618530273,1.2000000476837158,9830.099609375,9830.099609375,-13.5,2131.800048828125,8967.0,7180.2001953125,0.0
2.9127083751032554,-9830.400390625,-9830.400390625,-9830.400390625,-9830.400390625,-9830.400390625,-9830.400390625,-9830.400390625,-9830.400390625,-8595.599609375,-8628.599609375,-7929.0,-7335.89990234375,-8865.900390625,-8096.39990234375,-9512.7001953125,-9631.5,-8.699999809265137,1.5,-8493.2998046875,-5591.39990234375,-13.5,-9830.400390625,-8450.400390625,-8308.7998046875,0.0
2.912977520430504,7648.5,7191.2998046875,4381.2001953125,6216.60009765625,5523.2998046875,5042.7001953125,6782.7001953125,3902.10009765625,15412.7998046875,-9830.400390625,4393.5,1446.5999755859375,9830.099609375,9830.099609375,9830.099609375,9830.099609375,-8.699999809265137,1.5,6733.7998046875,1045.800048828125,-14.100000381469727,-8571.2998046875,9830.099609375,9830.099609375,0.0
2.9132424954487495,4778.10009765625,5014.7998046875,7998.0,4362.0,5986.7998046875,6986.10009765625,5694.60009765625,7697.10009765625,-31047.900390625,1819.199951171875,5506.7998046875,5003.39990234375,-3341.10009765625,-1265.0999755859375,1002.9000244140625,242.10000610351562,-9.300000190734863,1.5,4622.7001953125,2364.0,-14.100000381469727,6426.60009765625,-3281.10009765625,-8856.599609375,0.0
2.9135074704669943,-9690.900390625,-4345.5,-2271.300048828125,-451.5,-7639.5,-9830.400390625,-9830.400390625,-9830.400390625,35790.30078125,9830.099609375,-9830.400390625,-9830.400390625,-9830.400390625,-9830.400390625,-9830.400390625,-9830.400390625,-8.699999809265137,0.6000000238418579,-9830.400390625,-9830.400390625,-14.100000381469727,9830.099609375,-9830.400390625,-5139.89990234375,0.0
2.9137724454852396,-1973.699951171875,-2476.800048828125,120.0,-1675.800048828125,409.79998779296875,948.5999755859375,-339.29998779296875,2187.300048828125,-27935.69921875,7377.0,3534.89990234375,5995.2001953125,-5241.0,-3860.10009765625,-3034.800048828125,-3398.39990234375,-8.399999618530273,0.6000000238418579,1821.5999755859375,6125.39990234375,-14.399999618530273,-741.5999755859375,-2746.5,-5333.39990234375,0.0
2.914035816538483,9279.0,8855.7001953125,6778.5,8392.2001953125,8109.2998046875,7763.7001953125,8743.5,7357.5,20525.69921875,-8585.400390625,8259.0,7399.5,9830.099609375,9830.099609375,9830.099609375,9830.099609375,-9.300000190734863,1.2000000476837158,9451.2001953125,8828.7001953125,-13.800000190734863,-9830.400390625,9830.099609375,9830.099609375,0.0
2.914297583626725,-9830.400390625,-9830.400390625,-9830.400390625,-9830.400390625,-9830.400390625,-9830.400390625,-9830.400390625,-9830.400390625,-14745.900390625,-9830.400390625,-9830.400390625,-9830.400390625,-8972.7001953125,-8117.7001953125,-8739.900390625,-9282.2998046875,-8.699999809265137,0.30000001192092896,-9513.599609375,-9830.400390625,-13.800000190734863,-8961.2998046875,-9830.400390625,-9830.400390625,0.0
2.9145593507149674,8860.2001953125,8492.7001953125,8711.400390625,7941.2998046875,8605.5,9274.5,9371.099609375,9400.2001953125,-4890.60009765625,-794.4000244140625,9830.099609375,9830.099609375,7428.2998046875,8697.599609375,9774.599609375,8894.099609375,-8.699999809265137,1.2000000476837158,9830.099609375,7838.39990234375,-14.100000381469727,5719.7998046875,7203.89990234375,4903.5,0.0
2.9432674371045224,-940.2000122070312,34.79999923706055,639.0,779.7000122070312,-329.70001220703125,-950.0999755859375,-1406.699951171875,-1126.199951171875,17265.30078125,9830.099609375,-6744.0,-6013.2001953125,-2506.800048828125,-4137.89990234375,-4222.2001953125,-3337.199951171875,-8.699999809265137,1.2000000476837158,-6420.0,-6055.2001953125,-13.800000190734863,9830.099609375,-3070.5,-519.9000244140625,0.0
2.9435603211137935,-7049.10009765625,-7114.2001953125,-7003.2001953125,-7028.39990234375,-6740.39990234375,-6765.2998046875,-6835.7998046875,-6913.7998046875,-22007.69921875,1883.0999755859375,-4110.0,-2692.199951171875,-7038.60009765625,-6732.2998046875,-6753.89990234375,-6955.5,-8.399999618530273,0.6000000238418579,-5037.89990234375,-2082.89990234375,-13.800000190734863,-3516.300048828125,-6321.89990234375,-6817.5,0.0
2.943864112085074,9830.099609375,9830.099609375,9830.099609375,9830.099609375,9830.099609375,9830.099609375,9830.099609375,9830.099609375,28158.0,-9830.400390625,9830.099609375,9830.099609375,9830.099609375,9830.099609375,9830.099609375,9830.099609375,-9.0,0.8999999761581421,9830.099609375,9830.099609375,-13.800000190734863,-9830.400390625,9830.099609375,9830.099609375,0.0
2.9442185883504024,-9830.400390625,-9830.400390625,-9830.400390625,-9830.400390625,-9830.400390625,-9830.400390625,-9830.400390625,-9830.400390625,-34975.19921875,-9830.400390625,-8375.7001953125,-9069.0,-9222.0,-8377.5,-8575.2001953125,-8884.7998046875,-8.699999809265137,0.8999999761581421,-8117.10009765625,-8600.099609375,-13.800000190734863,-9587.7001953125,-9424.2001953125,-9830.400390625,0.0
2.9445929537817483,6351.60009765625,6605.10009765625,6496.5,6455.39990234375,6048.0,5894.7001953125,6139.2001953125,5184.2998046875,24601.19921875,297.8999938964844,2280.89990234375,395.70001220703125,6318.60009765625,5850.2998046875,6042.0,5832.89990234375,-8.699999809265137,0.8999999761581421,3533.699951171875,-1386.300048828125,-14.399999618530273,5729.10009765625,5133.89990234375,5881.7998046875,0.0
2.94491920026305,2064.300048828125,2411.39990234375,3591.60009765625,2776.800048828125,2944.5,3209.39990234375,2427.300048828125,3941.39990234375,-15857.400390625,9830.099609375,2842.5,4457.10009765625,-1204.199951171875,-1483.800048828125,-674.4000244140625,-324.8999938964844,-9.300000190734863,1.5,1571.699951171875,3741.60009765625,-13.800000190734863,9830.099609375,-756.9000244140625,-1011.5999755859375,0.0
2.945260844808366,-9530.400390625,-9094.7998046875,-9510.599609375,-8529.2998046875,-9433.5,-9830.400390625,-9830.400390625,-9830.400390625,8447.400390625,5164.2001953125,-9830.400390625,-9830.400390625,-7902.0,-8359.7998046875,-9100.7998046875,-8992.5,-8.399999618530273,0.6000000238418579,-9830.400390625,-9102.900390625,-14.100000381469727,-367.20001220703125,-7917.2998046875,-6144.60009765625,0.0
2.945613075522692,9830.099609375,9830.099609375,9830.099609375,9830.099609375,9830.099609375,9830.099609375,9830.099609375,9830.099609375,5557.5,-9830.400390625,9830.099609375,9830.099609375,9830.099609375,9830.099609375,9830.099609375,9830.099609375,-8.699999809265137,0.30000001192092896,9731.099609375,9830.099609375,-14.100000381469727,-9830.400390625,9830.099609375,9830.099609375,0.0
2.9459280942489836,-6354.2998046875,-8803.5,-9830.400390625,-9830.400390625,-7925.39990234375,-5852.39990234375,-4950.2998046875,-4294.2001953125,-24675.30078125,-9830.400390625,2765.10009765625,-339.0,-1275.9000244140625,2310.89990234375,2213.10009765625,501.0,-8.699999809265137,2.0999999046325684,3593.39990234375,-1097.4000244140625,-13.5,-8685.599609375,-2220.0,-8269.2001953125,0.0
2.990493941022207,-2960.10009765625,724.5,1384.5,2102.699951171875,-2496.60009765625,-4511.39990234375,-4996.2001953125,-6083.7001953125,27787.5,-1607.4000244140625,-9830.400390625,-9830.400390625,-4074.300048828125,-9830.400390625,-9830.400390625,-9337.2001953125,-8.699999809265137,0.30000001192092896,-9830.400390625,-9830.400390625,-14.100000381469727,6799.7998046875,-9830.400390625,-1596.5999755859375,0.0
2.9908028646814926,8871.0,9273.0,9830.099609375,9830.099609375,9830.099609375,9830.099609375,9830.099609375,9830.099609375,-30677.400390625,9830.099609375,9757.7998046875,9830.099609375,-6205.2001953125,-5985.2998046875,-1428.9000244140625,-1539.0,-8.699999809265137,0.8999999761581421,8292.2998046875,8979.900390625,-14.100000381469727,9830.099609375,-3460.199951171875,-7369.7998046875,0.0
2.991096069483764,-2440.800048828125,204.0,376.20001220703125,2487.60009765625,-770.0999755859375,-2952.300048828125,-3722.10009765625,-3564.89990234375,33122.69921875,6635.39990234375,-8178.0,-5387.7001953125,-2963.699951171875,-8652.2998046875,-9358.2001953125,-7478.39990234375,-8.699999809265137,1.5,-9011.400390625,-2287.199951171875,-13.800000190734863,1627.800048828125,-2670.0,7637.10009765625,0.0
2.991388953493035,-9190.2001953125,-9830.400390625,-9830.400390625,-9830.400390625,-9830.400390625,-8762.099609375,-8118.60009765625,-7989.2998046875,-23712.0,-8281.5,121.5,-291.8999938964844,-5868.2998046875,-2254.199951171875,-2679.0,-4080.60009765625,-8.699999809265137,0.8999999761581421,-18.899999618530273,1268.4000244140625,-14.100000381469727,-9830.400390625,-3666.0,-8078.39990234375,0.0
2.9916786295723026,9830.099609375,9830.099609375,9830.099609375,9830.099609375,9830.099609375,9830.099609375,9830.099609375,9830.099609375,5483.39990234375,-9830.400390625,9830.099609375,9830.099609375,9830.099609375,9830.099609375,9830.099609375,9830.099609375,-8.699999809265137,0.8999999761581421,9830.099609375,9627.2998046875,-14.100000381469727,-5225.7001953125,9830.099609375,9830.099609375,0.0
2.991968626444571,-7903.5,-7430.10009765625,-7641.89990234375,-7249.7998046875,-8264.099609375,-8514.599609375,-8266.7998046875,-8781.599609375,1333.800048828125,5576.10009765625,-9646.7998046875,-9830.400390625,-7439.7001953125,-7416.2998046875,-7620.60009765625,-7558.2001953125,-9.0,1.2000000476837158,-8798.400390625,-9830.400390625,-13.800000190734863,9347.099609375,-8193.900390625,-7593.2998046875,0.0
2.992257981730839,821.7000122070312,1189.5,2480.699951171875,1522.5,1738.5,1842.0,1142.4000244140625,1813.5,-12893.400390625,9830.099609375,23.700000762939453,1380.300048828125,-2380.800048828125,-3197.39990234375,-2376.60009765625,-2262.0,-8.699999809265137,0.30000001192092896,-1297.800048828125,-33.29999923706055,-13.800000190734863,9830.099609375,-2140.199951171875,-1715.699951171875,0.0
2.9925486201891074,6212.7001953125,6446.7001953125,6251.7001953125,6803.10009765625,6379.2001953125,6085.2001953125,6071.7001953125,6291.60009765625,27120.599609375,6768.60009765625,6048.89990234375,7395.89990234375,6220.5,5778.60009765625,5414.7001953125,6026.7001953125,-9.300000190734863,0.6000000238418579,5752.2001953125,8970.599609375,-14.100000381469727,1848.9000244140625,6777.60009765625,7343.39990234375,0.0
2.9928350883383725,-9830.400390625,-9830.400390625,-9830.400390625,-9830.400390625,-9830.400390625,-9830.400390625,-9830.400390625,-9830.400390625,-31640.69921875,-9000.599609375,-9663.0,-9830.400390625,-9830.400390625,-9279.2998046875,-9661.5,-9830.400390625,-8.699999809265137,-0.30000001192092896,-9555.599609375,-9477.2998046875,-13.800000190734863,-9830.400390625,-9641.400390625,-9830.400390625,0.0
2.99312412283164,9830.099609375,9830.099609375,9830.099609375,9830.099609375,9830.099609375,9830.099609375,9830.099609375,9830.099609375,26083.19921875,-9830.400390625,9830.099609375,9830.099609375,9830.099609375,9830.099609375,9830.099609375,9830.099609375,-8.699999809265137,0.8999999761581421,9830.099609375,9830.099609375,-14.100000381469727,-7096.2001953125,9830.099609375,9830.099609375,0.0
2.9934112325669053,-5417.7001953125,-5549.10009765625,-5268.89990234375,-5663.39990234375,-5567.10009765625,-5117.39990234375,-5188.2001953125,-4468.2001953125,-28232.099609375,5935.5,-4090.5,-5970.0,-6230.7001953125,-5440.5,-4889.39990234375,-5216.10009765625,-9.300000190734863,0.6000000238418579,-3733.800048828125,-7183.5,-13.800000190734863,8577.2998046875,-6318.0,-7358.7001953125,0.0
2.9937012294391736,-2280.300048828125,-1016.7000122070312,-303.6000061035156,-274.5,-1473.9000244140625,-2487.0,-2912.10009765625,-3524.39990234375,20229.30078125,9830.099609375,-8814.599609375,-6504.2998046875,-3811.800048828125,-6103.7998046875,-6469.2001953125,-5588.39990234375,-8.399999618530273,0.6000000238418579,-9104.099609375,-6025.5,-14.399999618530273,9830.099609375,-4528.7998046875,-1412.699951171875,0.0
2.9939896223464406,8624.7001953125,8186.7001953125,8290.7998046875,8230.2001953125,8888.7001953125,9311.400390625,9145.7998046875,9830.099609375,-3186.300048828125,7618.2001953125,9830.099609375,9830.099609375,7411.2001953125,8269.2001953125,8684.099609375,8694.599609375,-8.699999809265137,2.4000000953674316,9830.099609375,9830.099609375,-14.100000381469727,1860.5999755859375,9101.400390625,7342.7998046875,0.0
